time (s)	coil I (A)	last det (V)	int current (uC)
4366.533601	0.728203	0.123843	335.701630
4366.534556	1.139718	0.123843	1424.132324
4366.535478	0.597001	0.123843	1974.567017
4366.536367	0.099437	0.123843	2062.966797
4366.537302	0.085836	0.123843	2143.223633
4366.538206	0.085858	0.123843	2220.839355
4366.539104	0.085840	0.123843	2297.923584
4366.539991	0.085774	0.123843	2374.005127
4366.540936	0.085953	0.123843	2455.230957
4366.541837	0.085778	0.123843	2532.516602
4366.542733	0.085796	0.123843	2609.389648
4366.543658	0.085873	0.123843	2688.822021
4366.544573	0.086027	0.123843	2767.536377
4367.559658	0.746558	0.110287	350.135498
4367.560562	1.136990	0.110287	1377.974243
4367.561526	0.598033	0.110287	1954.478516
4367.562435	0.098397	0.110287	2043.921631
4367.563319	0.085741	0.110287	2119.716553
4367.564255	0.085873	0.110287	2200.093506
4367.565163	0.085865	0.110287	2278.059326
4367.566056	0.085847	0.110287	2354.720947
4367.566939	0.085759	0.110287	2430.446289
4367.567885	0.085884	0.110287	2511.692383
4367.568776	0.085774	0.110287	2588.116943
4367.569690	0.085880	0.110287	2666.611328
4367.570577	0.085796	0.110287	2742.712402
4368.573920	0.733004	0.126203	329.851868
4368.574832	1.136298	0.126203	1366.155273
4368.575751	0.652072	0.126203	1965.408936
4368.576637	0.103964	0.126203	2057.520752
4368.577596	0.085748	0.126203	2139.753418
4368.578504	0.085833	0.126203	2217.689453
4368.579393	0.085917	0.126203	2294.069336
4368.580328	0.085917	0.126203	2374.401611
4368.581227	0.085964	0.126203	2451.683594
4368.582121	0.085909	0.126203	2528.486572
4368.583010	0.085880	0.126203	2604.833984
4368.583948	0.085917	0.126203	2685.423828
4368.584851	0.085902	0.126203	2762.993408
4369.602505	0.717257	0.104809	314.875854
4369.603478	1.136118	0.104809	1420.318848
4369.604408	0.587388	0.104809	1966.589355
4369.605305	0.098774	0.104809	2055.189941
4369.606195	0.085818	0.104809	2131.567871
4369.607126	0.086001	0.104809	2211.634766
4369.608030	0.085833	0.104809	2289.227295
4369.608926	0.085829	0.104809	2366.129883
4369.609814	0.085906	0.104809	2442.414307
4369.610769	0.085979	0.104809	2524.524170
4369.611673	0.085811	0.104809	2602.096924
4369.612566	0.085814	0.104809	2678.729004
4369.613497	0.085950	0.104809	2758.748291
4370.614751	0.727665	0.121772	325.993805
4370.615662	1.135591	0.121772	1360.516968
4370.616565	0.671338	0.121772	1966.735107
4370.617504	0.104692	0.121772	2065.041260
4370.618421	0.085602	0.121772	2143.538086
4370.619325	0.085873	0.121772	2221.166992
4370.620215	0.085748	0.121772	2297.482910
4370.621183	0.085763	0.121772	2380.501465
4370.622089	0.085862	0.121772	2458.292236
4370.623006	0.085895	0.121772	2537.057861
4370.623894	0.085858	0.121772	2613.299805
4370.624831	0.085825	0.121772	2693.718018
4370.625734	0.085862	0.121772	2771.251221
4371.645397	0.720278	0.106444	319.083282
4371.646289	1.134075	0.106444	1330.677856
4371.647256	0.636299	0.106444	1945.978760
4371.648158	0.101473	0.106444	2037.507812
4371.649054	0.085800	0.106444	2114.384277
4371.649989	0.085990	0.106444	2194.784912
4371.650889	0.085909	0.106444	2272.103271
4371.651791	0.085774	0.106444	2349.471436
4371.652683	0.085924	0.106444	2426.115723
4371.653621	0.085924	0.106444	2506.712402
4371.654519	0.086005	0.106444	2583.944580
4371.655419	0.085876	0.106444	2661.233398
4371.656304	0.085983	0.106444	2737.328125
4372.655055	0.713822	0.122070	314.081696
4372.655951	1.133020	0.122070	1329.267700
4372.656940	0.609591	0.122070	1932.153320
4372.657835	0.100283	0.122070	2021.906738
4372.658743	0.085697	0.122070	2099.719727
4372.659654	0.085851	0.122070	2177.929932
4372.660584	0.085961	0.122070	2257.873291
4372.661495	0.085865	0.122070	2336.096680
4372.662381	0.085844	0.122070	2412.154053
4372.663309	0.085906	0.122070	2491.874512
4372.664213	0.085884	0.122070	2569.513428
4372.665112	0.085847	0.122070	2646.689941
4372.665998	0.085822	0.122070	2722.727783
4373.688269	0.712815	0.107149	312.212952
4373.689165	1.133009	0.107149	1327.388916
4373.690159	0.604409	0.107149	1928.171631
4373.691076	0.099346	0.107149	2019.271606
4373.691970	0.085781	0.107149	2095.959961
4373.692866	0.085851	0.107149	2172.882324
4373.693783	0.085917	0.107149	2251.667969
4373.694694	0.085818	0.107149	2329.848145
4373.695589	0.085876	0.107149	2406.707520
4373.696524	0.085928	0.107149	2487.050049
4373.697429	0.085986	0.107149	2564.867676
4373.698335	0.085935	0.107149	2642.724854
4373.699225	0.085895	0.107149	2719.171143
4374.695882	0.717404	0.121965	314.940186
4374.696841	1.136093	0.121965	1404.452881
4374.697775	0.604603	0.121965	1969.152344
4374.698677	0.099419	0.121965	2058.828125
4374.699565	0.085785	0.121965	2135.005127
4374.700522	0.085990	0.121965	2217.297607
4374.701424	0.085942	0.121965	2294.817627
4374.702312	0.085873	0.121965	2371.072754
4374.703244	0.085968	0.121965	2451.194824
4374.704139	0.086008	0.121965	2528.172363
4374.705037	0.085891	0.121965	2605.302490
4374.705927	0.085876	0.121965	2681.732422
4374.706869	0.086019	0.121965	2762.762695
4375.729689	0.770903	0.111012	397.015228
4375.730600	1.141403	0.111012	1436.833008
4375.731511	0.594738	0.111012	1978.638916
4375.732398	0.099536	0.111012	2066.927490
4375.733345	0.085876	0.111012	2148.252441
4375.734254	0.085825	0.111012	2226.267578
4375.735154	0.085994	0.111012	2303.661865
4375.736075	0.085873	0.111012	2382.750732
4375.737004	0.085935	0.111012	2462.584473
4375.737906	0.085822	0.111012	2539.995605
4375.738800	0.085920	0.111012	2616.808350
4375.739725	0.085891	0.111012	2696.257568
4375.740633	0.085928	0.111012	2774.280029
4376.739824	0.748301	0.122465	353.197968
4376.740733	1.137155	0.122465	1386.871460
4376.741640	0.646216	0.122465	1972.989258
4376.742528	0.103213	0.122465	2064.642334
4376.743479	0.085880	0.122465	2146.314453
4376.744391	0.085876	0.122465	2224.633789
4376.745298	0.085785	0.122465	2302.440674
4376.746217	0.085939	0.122465	2381.418457
4376.747102	0.085895	0.122465	2457.435303
4376.748047	0.085840	0.122465	2538.553955
4376.748961	0.085928	0.122465	2617.091797
4376.749852	0.085950	0.122465	2693.673096
4376.750804	0.085891	0.122465	2775.441406
4377.768905	0.723387	0.109043	319.737244
4377.769860	1.139161	0.109043	1407.636230
4377.770796	0.603098	0.109043	1972.136108
4377.771694	0.099437	0.109043	2061.430664
4377.772622	0.085931	0.109043	2141.175049
4377.773522	0.085979	0.109043	2218.556152
4377.774426	0.085891	0.109043	2296.201660
4377.775317	0.085807	0.109043	2372.655518
4377.776254	0.086023	0.109043	2453.259033
4377.777159	0.085968	0.109043	2531.060059
4377.778053	0.085909	0.109043	2607.863037
4377.778942	0.085862	0.109043	2684.194092
4377.779892	0.086005	0.109043	2765.898437
4378.783727	0.752626	0.127774	354.486725
4378.784632	1.137239	0.127774	1383.687744
4378.785531	0.647095	0.127774	1965.425903
4378.786487	0.099554	0.127774	2060.599854
4378.787390	0.085844	0.127774	2138.116455
4378.788280	0.085931	0.127774	2214.595459
4378.789214	0.085895	0.127774	2294.821289
4378.790128	0.085869	0.127774	2373.305664
4378.791031	0.085902	0.127774	2450.875244
4378.791922	0.085844	0.127774	2527.361816
4378.792868	0.085957	0.127774	2608.677246
4378.793764	0.085840	0.127774	2685.589844
4378.794661	0.085902	0.127774	2762.644043
4379.805640	0.713185	0.107830	311.661743
4379.806579	1.137495	0.107830	1379.769653
4379.807510	0.628909	0.107830	1965.283691
4379.808402	0.101766	0.107830	2056.059326
4379.809329	0.085781	0.107830	2135.578613
4379.810234	0.085880	0.107830	2213.300049
4379.811136	0.085873	0.107830	2290.757324
4379.812023	0.085858	0.107830	2366.913574
4379.812969	0.085990	0.107830	2448.260010
4379.813874	0.085898	0.107830	2525.998047
4379.814768	0.085862	0.107830	2602.758545
4379.815686	0.085851	0.107830	2681.569580
4379.816592	0.085917	0.107830	2759.410156
4380.830676	0.722534	0.125853	320.082642
4380.831580	1.134617	0.125853	1345.776123
4380.832476	0.693567	0.125853	1967.212158
4380.833429	0.104462	0.125853	2066.764160
4380.834339	0.085690	0.125853	2144.741699
4380.835260	0.085723	0.125853	2223.692383
4380.836148	0.085928	0.125853	2299.996094
4380.837095	0.085829	0.125853	2381.276123
4380.837992	0.085895	0.125853	2458.323730
4380.838884	0.085961	0.125853	2535.000732
4380.839826	0.085909	0.125853	2615.927490
4380.840736	0.085840	0.125853	2694.041748
4380.841635	0.085770	0.125853	2771.149170
4381.842454	0.769625	0.103379	397.126617
4381.843368	1.141366	0.103379	1440.335083
4381.844271	0.597473	0.103379	1979.853271
4381.845161	0.099792	0.103379	2068.668457
4381.846095	0.085884	0.103379	2148.884033
4381.847006	0.085865	0.103379	2227.107422
4381.847899	0.085814	0.103379	2303.739502
4381.848818	0.085873	0.103379	2382.656494
4381.849725	0.085924	0.103379	2460.589600
4381.850636	0.085865	0.103379	2538.812988
4381.851527	0.085884	0.103379	2615.335449
4381.852455	0.085887	0.103379	2695.039062
4381.853349	0.085972	0.103379	2771.897705
4382.875651	0.760598	0.127976	378.017273
4382.876566	1.140553	0.127976	1421.623291
4382.877479	0.605134	0.127976	1974.110840
4382.878367	0.100415	0.127976	2063.279297
4382.879331	0.085906	0.127976	2146.092529
4382.880240	0.085822	0.127976	2224.104248
4382.881142	0.085887	0.127976	2301.574707
4382.882063	0.085847	0.127976	2380.639893
4382.882971	0.086005	0.127976	2458.732178
4382.883878	0.085917	0.127976	2536.658691
4382.884764	0.085953	0.127976	2612.813477
4382.885695	0.085946	0.127976	2692.829346
4382.886598	0.085876	0.127976	2770.375732
4383.882729	0.729760	0.105510	340.067932
4383.883686	1.140934	0.105510	1431.941650
4383.884599	0.595148	0.105510	1975.311523
4383.885486	0.099664	0.105510	2063.713867
4383.886432	0.085858	0.105510	2144.935791
4383.887330	0.085811	0.105510	2221.993652
4383.888218	0.085818	0.105510	2298.199951
4383.889161	0.085876	0.105510	2379.181396
4383.890054	0.085891	0.105510	2455.882080
4383.890963	0.085807	0.105510	2533.880615
4383.891856	0.085854	0.105510	2610.548584
4383.892786	0.085946	0.105510	2690.478516
4383.893698	0.085811	0.105510	2768.737793
4384.917960	0.711716	0.128540	310.308319
4384.918929	1.138894	0.128540	1413.896606
4384.919844	0.610441	0.128540	1972.449829
4384.920748	0.099950	0.128540	2062.804687
4384.921636	0.085785	0.128540	2138.981689
4384.922579	0.085909	0.128540	2219.994385
4384.923480	0.085862	0.128540	2297.355957
4384.924381	0.085844	0.128540	2374.700928
4384.925316	0.085946	0.128540	2455.060547
4384.926232	0.085917	0.128540	2533.760254
4384.927137	0.085880	0.128540	2611.481689
4384.928026	0.085906	0.128540	2687.851807
4384.928969	0.085913	0.128540	2768.867920
4385.926608	0.720439	0.108958	319.875122
4385.927502	1.133796	0.108958	1333.489136
4385.928458	0.664153	0.108958	1968.419189
4385.929370	0.100997	0.108958	2060.528809
4385.930270	0.085781	0.108958	2137.731934
4385.931160	0.085844	0.108958	2214.132568
4385.932109	0.086027	0.108958	2295.771729
4385.933005	0.085895	0.108958	2372.733398
4385.933899	0.085906	0.108958	2449.533203
4385.934789	0.085931	0.108958	2526.012207
4385.935725	0.085979	0.108958	2606.488525
4385.936635	0.085840	0.108958	2684.602783
4385.937529	0.085887	0.108958	2761.386230
4386.955773	0.763916	0.128379	372.791016
4386.956699	1.140417	0.128379	1428.817627
4386.957614	0.602022	0.128379	1979.667236
4386.958500	0.100177	0.128379	2068.424072
4386.959451	0.085763	0.128379	2149.984619
4386.960346	0.085851	0.128379	2226.821045
4386.961238	0.085822	0.128379	2303.373779
4386.962169	0.085939	0.128379	2383.382812
4386.963067	0.085858	0.128379	2460.483398
4386.963970	0.085737	0.128379	2537.904297
4386.964856	0.085847	0.128379	2613.964844
4386.965787	0.085979	0.128379	2694.011230
4386.966702	0.085880	0.128379	2772.591553
4387.972086	0.753105	0.107983	356.218872
4387.973006	1.138956	0.107983	1404.058716
4387.973922	0.619893	0.107983	1971.880371
4387.974851	0.100880	0.107983	2065.597900
4387.975762	0.085770	0.107983	2143.734619
4387.976671	0.085891	0.107983	2221.809570
4387.977564	0.085825	0.107983	2298.451416
4387.978499	0.085917	0.107983	2378.783691
4387.979396	0.085887	0.107983	2455.824707
4387.980302	0.085807	0.107983	2533.565674
4387.981191	0.085946	0.107983	2609.971680
4387.982138	0.085942	0.107983	2691.359131
4387.983045	0.085873	0.107983	2769.245850
4388.992465	0.721447	0.127657	319.600830
4388.993370	1.133954	0.127657	1345.829102
4388.994266	0.695197	0.127657	1968.725220
4388.995235	0.101169	0.127657	2066.758301
4388.996137	0.085774	0.127657	2144.126465
4388.997034	0.085891	0.127657	2221.170898
4388.997921	0.085854	0.127657	2297.323730
4388.998862	0.085968	0.127657	2378.219727
4388.999758	0.085873	0.127657	2455.161865
4389.000652	0.085844	0.127657	2531.906006
4389.001584	0.085917	0.127657	2611.980469
4389.002496	0.085906	0.127657	2690.326416
4389.003397	0.085836	0.127657	2767.664795
4390.017489	0.713507	0.113631	313.229614
4390.018387	1.133167	0.113631	1330.813232
4390.019362	0.625551	0.113631	1940.724976
4390.020258	0.101093	0.113631	2031.303833
4390.021179	0.085752	0.113631	2110.281494
4390.022065	0.085975	0.113631	2186.455566
4390.023011	0.085862	0.113631	2267.680908
4390.023913	0.085858	0.113631	2345.125000
4390.024804	0.085876	0.113631	2421.640869
4390.025738	0.085895	0.113631	2501.866699
4390.026656	0.085891	0.113631	2580.714844
4390.027577	0.085789	0.113631	2659.726074
4390.028469	0.085803	0.113631	2736.262451
4391.031288	0.738311	0.123992	358.818909
4391.032210	1.139864	0.123992	1409.773926
4391.033126	0.611477	0.123992	1969.886963
4391.034015	0.100822	0.123992	2059.517334
4391.034974	0.085836	0.123992	2141.834229
4391.035876	0.085917	0.123992	2219.331055
4391.036785	0.085876	0.123992	2297.392822
4391.037707	0.085844	0.123992	2376.540527
4391.038594	0.085968	0.123992	2452.794189
4391.039547	0.085957	0.123992	2534.711182
4391.040438	0.085931	0.123992	2611.276123
4391.041328	0.085924	0.123992	2687.748535
4391.042253	0.085909	0.123992	2767.214844
4392.062415	0.717997	0.112922	315.200623
4392.063317	1.133617	0.112922	1337.723145
4392.064214	0.688480	0.112922	1955.289917
4392.065180	0.101719	0.112922	2053.550293
4392.066085	0.085675	0.112922	2131.086182
4392.066974	0.085957	0.112922	2207.501953
4392.067910	0.085972	0.112922	2287.971436
4392.068803	0.085953	0.112922	2364.727783
4392.069701	0.085895	0.112922	2441.861328
4392.070591	0.085902	0.112922	2518.314209
4392.071541	0.085986	0.112922	2600.001221
4392.072447	0.085979	0.112922	2677.898193
4392.073349	0.085880	0.112922	2755.362061
4393.071118	0.741387	0.126832	372.917511
4393.072027	1.140560	0.126832	1409.686890
4393.072943	0.605134	0.126832	1963.989868
4393.073835	0.099998	0.126832	2053.187744
4393.074769	0.085869	0.126832	2133.389404
4393.075668	0.085895	0.126832	2210.608887
4393.076573	0.085865	0.126832	2288.317139
4393.077461	0.085876	0.126832	2364.575439
4393.078411	0.085979	0.126832	2446.255371
4393.079323	0.085928	0.126832	2524.621582
4393.080212	0.085880	0.126832	2600.968994
4393.081143	0.085895	0.126832	2680.937012
4393.082043	0.085873	0.126832	2758.222656
4394.104265	0.716550	0.110936	314.565582
4394.105225	1.139103	0.110936	1408.104126
4394.106145	0.614015	0.110936	1972.997803
4394.107038	0.100693	0.110936	2062.916992
4394.108003	0.085825	0.110936	2145.738281
4394.108903	0.085847	0.110936	2223.000732
4394.109805	0.085913	0.110936	2300.494385
4394.110691	0.085767	0.110936	2376.483643
4394.111634	0.085990	0.110936	2457.572266
4394.112541	0.085833	0.110936	2535.422363
4394.113429	0.085800	0.110936	2611.612305
4394.114359	0.085902	0.110936	2691.501221
4394.115265	0.085950	0.110936	2769.371582
4395.112403	0.725892	0.126606	325.199768
4395.113302	1.134617	0.126606	1345.220215
4395.114251	0.652079	0.126606	1964.042969
4395.115161	0.101375	0.126606	2056.293701
4395.116058	0.085767	0.126606	2133.226318
4395.116945	0.085895	0.126606	2209.415039
4395.117892	0.086060	0.126606	2290.913574
4395.118798	0.086060	0.126606	2368.883545
4395.119691	0.085950	0.126606	2445.636719
4395.120579	0.085924	0.126606	2521.937256
4395.121529	0.085964	0.126606	2603.603516
4395.122436	0.085887	0.126606	2681.503418
4395.123330	0.085957	0.126606	2758.349121
4396.146129	0.718923	0.110577	317.764099
4396.147027	1.133698	0.110577	1335.824463
4396.147983	0.640529	0.110577	1948.169678
4396.148896	0.101733	0.110577	2041.052246
4396.149798	0.085748	0.110577	2118.397217
4396.150711	0.085935	0.110577	2196.855957
4396.151604	0.085847	0.110577	2273.517578
4396.152560	0.085902	0.110577	2355.639893
4396.153464	0.085803	0.110577	2433.206055
4396.154353	0.085979	0.110577	2509.641357
4396.155274	0.085939	0.110577	2588.791016
4396.156170	0.085833	0.110577	2665.697021
4396.157082	0.085891	0.110577	2744.029785
4397.154766	0.720498	0.128387	314.857635
4397.155692	1.135430	0.128387	1366.265625
4397.156593	0.670477	0.128387	1970.365723
4397.157536	0.103586	0.128387	2068.047607
4397.158440	0.085822	0.128387	2145.630371
4397.159333	0.085880	0.128387	2222.321289
4397.160244	0.085891	0.128387	2300.568115
4397.161145	0.085891	0.128387	2377.956055
4397.162078	0.085847	0.128387	2458.051514
4397.162984	0.085906	0.128387	2535.882080
4397.163876	0.085898	0.128387	2612.503418
4397.164790	0.085873	0.128387	2690.991211
4397.165704	0.085851	0.128387	2769.458984
4398.185429	0.724153	0.114167	324.420471
4398.186332	1.134891	0.114167	1349.227295
4398.187275	0.653298	0.114167	1965.287598
4398.188180	0.101869	0.114167	2057.479004
4398.189078	0.085737	0.114167	2134.471191
4398.189968	0.085829	0.114167	2210.858887
4398.190916	0.085935	0.114167	2292.325195
4398.191816	0.085979	0.114167	2369.706299
4398.192712	0.085928	0.114167	2446.697510
4398.193602	0.085891	0.114167	2523.140625
4398.194545	0.086027	0.114167	2604.263672
4398.195454	0.085895	0.114167	2682.342041
4398.196354	0.085854	0.114167	2759.611084
4399.197184	0.740446	0.130087	363.558777
4399.198099	1.139260	0.130087	1405.981934
4399.199009	0.623269	0.130087	1973.156738
4399.199893	0.101620	0.130087	2062.988770
4399.200828	0.085887	0.130087	2143.293457
4399.201732	0.085873	0.130087	2220.922363
4399.202637	0.085873	0.130087	2298.637207
4399.203528	0.085961	0.130087	2375.228271
4399.204478	0.085950	0.130087	2456.880615
4399.205385	0.085858	0.130087	2534.753906
4399.206279	0.085997	0.130087	2611.635498
4399.207215	0.086052	0.130087	2692.180420
4399.208113	0.085986	0.130087	2769.396240
4400.226761	0.726599	0.111093	318.250397
4400.227732	1.140212	0.111093	1425.396606
4400.228663	0.592786	0.111093	1977.280029
4400.229552	0.099287	0.111093	2065.546387
4400.230494	0.085851	0.111093	2146.417969
4400.231402	0.085931	0.111093	2224.443604
4400.232291	0.085844	0.111093	2300.758545
4400.233182	0.085833	0.111093	2377.235352
4400.234122	0.085880	0.111093	2457.962646
4400.235027	0.085822	0.111093	2535.631104
4400.235930	0.085906	0.111093	2613.204102
4400.236817	0.085942	0.111093	2689.435059
4400.237762	0.085906	0.111093	2770.615967
4401.239494	0.711354	0.128250	308.727509
4401.240449	1.136096	0.128250	1393.699341
4401.241376	0.618065	0.128250	1966.645752
4401.242278	0.100583	0.128250	2057.372070
4401.243168	0.085833	0.128250	2133.762939
4401.244119	0.085961	0.128250	2215.511475
4401.245020	0.085873	0.128250	2292.882812
4401.245919	0.085891	0.128250	2370.098877
4401.246835	0.085895	0.128250	2448.778564
4401.247750	0.085880	0.128250	2527.358887
4401.248657	0.085822	0.128250	2605.198975
4401.249545	0.085800	0.128250	2681.388916
4401.250476	0.085854	0.128250	2761.319336
4402.268116	0.724911	0.113176	324.760071
4402.269016	1.134338	0.113176	1345.664551
4402.269912	0.682632	0.113176	1957.302734
4402.270853	0.102836	0.113176	2054.071045
4402.271766	0.085781	0.113176	2132.389404
4402.272665	0.085825	0.113176	2209.546143
4402.273583	0.085898	0.113176	2288.400879
4402.274468	0.085840	0.113176	2364.369141
4402.275430	0.085803	0.113176	2446.911865
4402.276350	0.085833	0.113176	2525.877686
4402.277239	0.085814	0.113176	2602.166504
4402.278192	0.085957	0.113176	2684.083496
4402.279090	0.085854	0.113176	2761.180908
4403.280389	0.766934	0.126147	379.632141
4403.281312	1.140509	0.126147	1432.322021
4403.282227	0.601044	0.126147	1982.276978
4403.283115	0.099763	0.126147	2070.866699
4403.284055	0.085858	0.126147	2151.573242
4403.284963	0.085869	0.126147	2229.542480
4403.285866	0.085902	0.126147	2307.112061
4403.286793	0.085950	0.126147	2386.787354
4403.287693	0.085946	0.126147	2464.138672
4403.288597	0.085869	0.126147	2541.764404
4403.289488	0.085953	0.126147	2618.348877
4403.290427	0.085990	0.126147	2699.093506
4403.291324	0.086030	0.126147	2776.262695
4404.309447	0.711339	0.114175	308.721191
4404.310394	1.134364	0.114175	1382.963867
4404.311334	0.608749	0.114175	1955.187744
4404.312242	0.099595	0.114175	2045.619751
4404.313133	0.085807	0.114175	2122.073730
4404.314069	0.085917	0.114175	2202.491699
4404.314979	0.085972	0.114175	2280.725830
4404.315878	0.085924	0.114175	2357.971680
4404.316764	0.085953	0.114175	2434.126465
4404.317709	0.086019	0.114175	2515.414795
4404.318603	0.085869	0.114175	2592.181885
4404.319488	0.085847	0.114175	2668.156738
4404.320428	0.085836	0.114175	2748.842773
4405.321692	0.728265	0.129599	325.534607
4405.322595	1.134888	0.129599	1350.338135
4405.323557	0.616728	0.129599	1943.630859
4405.324462	0.100115	0.129599	2034.234741
4405.325364	0.085818	0.129599	2111.642578
4405.326251	0.085869	0.129599	2187.808594
4405.327196	0.085920	0.129599	2269.003418
4405.328112	0.085818	0.129599	2347.612549
4405.329003	0.085917	0.129599	2424.164307
4405.329947	0.085898	0.129599	2505.252441
4405.330851	0.086016	0.129599	2583.010498
4405.331741	0.085913	0.129599	2659.473145
4405.332631	0.085909	0.129599	2735.932617
4406.352376	0.746224	0.116495	360.426361
4406.353273	1.137806	0.116495	1381.038696
4406.354240	0.601377	0.116495	1962.570190
4406.355131	0.098771	0.116495	2050.574951
4406.356049	0.085822	0.116495	2129.359131
4406.356945	0.085942	0.116495	2206.363525
4406.357904	0.085873	0.116495	2288.715576
4406.358805	0.085807	0.116495	2366.027588
4406.359697	0.085928	0.116495	2442.675049
4406.360648	0.086049	0.116495	2524.507324
4406.361553	0.085807	0.116495	2602.162598
4406.362449	0.085836	0.116495	2679.071777
4406.363338	0.085975	0.116495	2755.503906
4407.361507	0.733165	0.129567	335.789703
4407.362402	1.135078	0.129567	1351.684570
4407.363363	0.616787	0.129567	1944.416992
4407.364266	0.100195	0.129567	2034.893311
4407.365167	0.085887	0.129567	2112.277832
4407.366058	0.085935	0.129567	2188.845947
4407.367009	0.085957	0.129567	2270.591064
4407.367914	0.085847	0.129567	2348.282715
4407.368812	0.085895	0.129567	2425.416260
4407.369729	0.085909	0.129567	2504.195312
4407.370618	0.085909	0.129567	2580.568848
4407.371571	0.085902	0.129567	2662.433594
4407.372478	0.085942	0.129567	2740.383301
4408.395223	0.726434	0.113969	322.536835
4408.396157	1.134932	0.113969	1382.562988
4408.397087	0.624342	0.113969	1963.201050
4408.398001	0.100635	0.113969	2055.181152
4408.398898	0.085854	0.113969	2132.192627
4408.399786	0.085895	0.113969	2208.467285
4408.400709	0.085972	0.113969	2287.819092
4408.401620	0.085994	0.113969	2366.159424
4408.402535	0.085953	0.113969	2444.806641
4408.403430	0.085906	0.113969	2521.692383
4408.404393	0.085961	0.113969	2604.472656
4408.405290	0.085931	0.113969	2681.553223
4408.406180	0.085906	0.113969	2758.009277
4409.402877	0.746360	0.130127	365.716339
4409.403805	1.140494	0.130127	1424.095093
4409.404719	0.603702	0.130127	1975.879028
4409.405606	0.100221	0.130127	2064.774902
4409.406560	0.085789	0.130127	2146.617187
4409.407456	0.085847	0.130127	2223.536133
4409.408361	0.085854	0.130127	2301.234375
4409.409251	0.085781	0.130127	2377.579590
4409.410194	0.085906	0.130127	2458.588623
4409.411102	0.085796	0.130127	2536.491211
4409.411992	0.085807	0.130127	2612.859375
4409.412933	0.085902	0.130127	2693.693359
4409.413835	0.085964	0.130127	2771.233154
4410.437593	0.726559	0.117015	326.224945
4410.438497	1.134683	0.117015	1351.978027
4410.439459	0.633798	0.117015	1961.691284
4410.440356	0.100569	0.117015	2051.901611
4410.441251	0.085774	0.117015	2128.669189
4410.442141	0.085924	0.117015	2205.141602
4410.443081	0.085961	0.117015	2285.944580
4410.443978	0.085880	0.117015	2362.979004
4410.444890	0.085928	0.117015	2441.345215
4410.445782	0.085939	0.117015	2518.002441
4410.446720	0.085961	0.117015	2598.633545
4410.447628	0.085862	0.117015	2676.596191
4410.448517	0.085887	0.117015	2752.950195
4411.444180	0.725409	0.131420	324.257812
4411.445080	1.134573	0.131420	1345.373291
4411.446033	0.643477	0.131420	1958.606445
4411.446930	0.102327	0.131420	2050.393555
4411.447827	0.085792	0.131420	2127.349121
4411.448714	0.085994	0.131420	2203.625488
4411.449655	0.086019	0.131420	2284.569580
4411.450559	0.085873	0.131420	2362.198486
4411.451460	0.085942	0.131420	2439.632568
4411.452349	0.085961	0.131420	2516.051514
4411.453295	0.086019	0.131420	2597.425781
4411.454202	0.085833	0.131420	2675.275879
4411.455098	0.085924	0.131420	2752.263916
4412.478414	0.714196	0.119581	310.675049
4412.479367	1.136228	0.119581	1393.500366
4412.480294	0.619215	0.119581	1967.512695
4412.481190	0.101005	0.119581	2058.012939
4412.482078	0.085653	0.119581	2134.072754
4412.483014	0.085913	0.119581	2214.487305
4412.483921	0.085887	0.119581	2292.387207
4412.484819	0.085803	0.119581	2369.438477
4412.485746	0.085935	0.119581	2449.100342
4412.486656	0.085906	0.119581	2527.274658
4412.487565	0.085789	0.119581	2605.256348
4412.488461	0.085741	0.119581	2682.080322
4412.489404	0.085942	0.119581	2763.124023
4413.487574	0.718890	0.131573	317.749542
4413.488472	1.133434	0.131573	1335.573120
4413.489437	0.634523	0.131573	1947.887573
4413.490345	0.101521	0.131573	2040.068604
4413.491240	0.085734	0.131573	2116.800293
4413.492129	0.085767	0.131573	2193.046875
4413.493079	0.085920	0.131573	2274.671387
4413.493984	0.085811	0.131573	2352.329834
4413.494880	0.085796	0.131573	2429.202881
4413.495812	0.085880	0.131573	2509.243164
4413.496710	0.085953	0.131573	2586.429199
4413.497604	0.085946	0.131573	2663.264893
4413.498492	0.085822	0.131573	2739.474365
4414.518210	0.710500	0.117800	307.646698
4414.519162	1.135869	0.117800	1388.994141
4414.520085	0.626664	0.117800	1967.404907
4414.520978	0.101960	0.117800	2058.455566
4414.521862	0.085833	0.117800	2134.331543
4414.522821	0.085961	0.117800	2216.767822
4414.523717	0.085942	0.117800	2293.772217
4414.524613	0.085898	0.117800	2370.737305
4414.525535	0.085935	0.117800	2449.969482
4414.526452	0.085957	0.117800	2528.791992
4414.527356	0.085833	0.117800	2606.384521
4414.528255	0.085884	0.117800	2683.593994
4414.529184	0.085887	0.117800	2763.383545
4415.531468	0.712753	0.137060	310.760162
4415.532360	1.133613	0.137060	1321.943115
4415.533334	0.632889	0.137060	1938.377441
4415.534235	0.102034	0.137060	2030.309814
4415.535127	0.085756	0.137060	2106.803711
4415.536062	0.085950	0.137060	2187.166748
4415.536962	0.085851	0.137060	2264.432617
4415.537862	0.085858	0.137060	2341.705078
4415.538789	0.085997	0.137060	2421.424561
4415.539702	0.086041	0.137060	2499.980225
4415.540612	0.085865	0.137060	2578.117920
4415.541508	0.085975	0.137060	2655.151855
4415.542457	0.086023	0.137060	2736.787598
4416.555542	0.756987	0.117236	389.848450
4416.556458	1.141425	0.117236	1435.393311
4416.557368	0.589629	0.117236	1971.955566
4416.558253	0.099364	0.117236	2059.892822
4416.559184	0.085928	0.117236	2139.891602
4416.560083	0.085880	0.117236	2217.097900
4416.560988	0.085935	0.117236	2294.869141
4416.561883	0.085829	0.117236	2371.686035
4416.562830	0.085983	0.117236	2453.111572
4416.563739	0.085891	0.117236	2531.186523
4416.564636	0.085880	0.117236	2608.220947
4416.565579	0.085957	0.117236	2689.278320
4416.566479	0.085920	0.117236	2766.606689
4417.577425	0.719623	0.136701	319.512512
4417.578320	1.133892	0.136701	1334.345459
4417.579298	0.619955	0.136701	1940.661255
4417.580204	0.100254	0.136701	2031.491333
4417.581103	0.085811	0.136701	2108.635010
4417.582032	0.085909	0.136701	2188.444824
4417.582932	0.086016	0.136701	2265.858887
4417.583830	0.085844	0.136701	2342.946289
4417.584718	0.085917	0.136701	2419.240479
4417.585645	0.086008	0.136701	2498.970215
4417.586549	0.085920	0.136701	2576.642334
4417.587450	0.085909	0.136701	2654.046631
4417.588342	0.085953	0.136701	2730.717041
4418.593260	0.742061	0.117220	344.316101
4418.594161	1.136459	0.117220	1368.265381
4418.595095	0.647183	0.117220	1972.733887
4418.596006	0.101301	0.117220	2065.019287
4418.596906	0.085811	0.117220	2142.248779
4418.597806	0.085880	0.117220	2219.541016
4418.598741	0.085920	0.117220	2299.876709
4418.599650	0.085964	0.117220	2378.018311
4418.600555	0.085928	0.117220	2455.782959
4418.601444	0.085935	0.117220	2532.179199
4418.602395	0.085913	0.117220	2613.882568
4418.603302	0.085891	0.117220	2691.785889
4418.604196	0.085836	0.117220	2768.523437
4419.622866	0.720487	0.136302	319.175781
4419.623773	1.134386	0.136302	1348.063843
4419.624672	0.689246	0.136302	1967.695679
4419.625619	0.102620	0.136302	2064.876465
4419.626530	0.085814	0.136302	2143.053223
4419.627420	0.085884	0.136302	2219.489746
4419.628331	0.085891	0.136302	2297.736572
4419.629247	0.085876	0.136302	2376.399414
4419.630153	0.085822	0.136302	2454.153809
4419.631056	0.085781	0.136302	2531.614258
4419.631970	0.085807	0.136302	2610.041748
4419.632858	0.085873	0.136302	2686.296875
4419.633806	0.085803	0.136302	2767.638428
4420.632545	0.726306	0.112450	326.837769
4420.633455	1.136008	0.112450	1360.605347
4420.634367	0.658473	0.112450	1961.132568
4420.635299	0.101785	0.112450	2055.995850
4420.636207	0.085785	0.112450	2133.888672
4420.637109	0.085811	0.112450	2211.289795
4420.637994	0.085876	0.112450	2287.290527
4420.638945	0.086019	0.112450	2369.094971
4420.639854	0.085884	0.112450	2447.163330
4420.640744	0.085825	0.112450	2523.547852
4420.641686	0.085887	0.112450	2604.453857
4420.642578	0.086012	0.112450	2681.176514
4420.643482	0.085800	0.112450	2758.739258
4421.666261	0.723893	0.138679	320.684509
4421.667165	1.134324	0.138679	1346.113037
4421.668092	0.662032	0.138679	1959.817139
4421.669026	0.101572	0.138679	2054.685547
4421.669928	0.085693	0.138679	2131.980957
4421.670826	0.085833	0.138679	2209.058594
4421.671758	0.085906	0.138679	2289.122803
4421.672665	0.085939	0.138679	2367.069336
4421.673563	0.086005	0.138679	2444.301514
4421.674449	0.085803	0.138679	2520.323242
4421.675384	0.085939	0.138679	2600.676025
4421.676290	0.085825	0.138679	2678.433594
4421.677182	0.085869	0.138679	2755.028809
4422.673362	0.718261	0.115983	319.625946
4422.674254	1.133144	0.115983	1330.390869
4422.675225	0.631161	0.115983	1943.248047
4422.676127	0.100968	0.115983	2034.321167
4422.677031	0.085737	0.115983	2111.827637
4422.677921	0.085887	0.115983	2188.267578
4422.678878	0.085924	0.115983	2270.496826
4422.679787	0.085778	0.115983	2348.468750
4422.680683	0.085865	0.115983	2425.404297
4422.681610	0.085997	0.115983	2505.123779
4422.682507	0.086023	0.115983	2582.286377
4422.683400	0.085887	0.115983	2658.983887
4422.684290	0.085833	0.115983	2735.374756
4423.705554	0.726079	0.139046	319.474792
4423.706472	1.135807	0.139046	1362.145508
4423.707382	0.662373	0.139046	1964.905029
4423.708318	0.101763	0.139046	2060.154785
4423.709222	0.085811	0.139046	2137.727539
4423.710124	0.085836	0.139046	2215.151855
4423.711011	0.085862	0.139046	2291.311279
4423.711956	0.085909	0.139046	2372.495605
4423.712867	0.085844	0.139046	2450.698975
4423.713764	0.085928	0.139046	2527.776123
4423.714700	0.085884	0.139046	2608.163330
4423.715597	0.086019	0.139046	2685.322754
4423.716491	0.085854	0.139046	2762.076660
4424.717771	0.713060	0.117043	313.033447
4424.718725	1.138978	0.117043	1399.618652
4424.719659	0.608342	0.117043	1967.810303
4424.720564	0.099459	0.117043	2057.820801
4424.721454	0.085792	0.117043	2134.175781
4424.722404	0.085968	0.117043	2215.845459
4424.723303	0.085833	0.117043	2293.008789
4424.724193	0.085858	0.117043	2369.422607
4424.725133	0.085924	0.117043	2450.191162
4424.726037	0.085891	0.117043	2527.836670
4424.726926	0.085939	0.117043	2604.236084
4424.727845	0.085913	0.117043	2683.190186
4424.728764	0.085939	0.117043	2762.167969
4425.743818	0.718063	0.138264	315.947601
4425.744779	1.138191	0.138264	1409.749023
4425.745696	0.612235	0.138264	1971.168701
4425.746600	0.100243	0.138264	2061.788330
4425.747485	0.085770	0.138264	2137.695068
4425.748430	0.085891	0.138264	2218.862061
4425.749328	0.085983	0.138264	2296.074463
4425.750224	0.085825	0.138264	2372.973877
4425.751152	0.086016	0.138264	2452.796387
4425.752057	0.085972	0.138264	2530.600830
4425.752954	0.085847	0.138264	2607.605713
4425.753841	0.085833	0.138264	2683.739258
4425.754790	0.085990	0.138264	2765.343750
4426.763723	0.719762	0.117160	316.695251
4426.764695	1.138674	0.117160	1423.486816
4426.765602	0.609639	0.117160	1976.429199
4426.766501	0.100228	0.117160	2066.534424
4426.767387	0.085789	0.117160	2142.543213
4426.768337	0.085950	0.117160	2224.195557
4426.769246	0.085946	0.117160	2302.320557
4426.770145	0.085887	0.117160	2379.533447
4426.771074	0.085920	0.117160	2459.353516
4426.771976	0.086023	0.117160	2536.946289
4426.772869	0.085803	0.117160	2613.568604
4426.773754	0.085822	0.117160	2689.520752
4426.774679	0.085858	0.117160	2768.939453
4427.781583	0.717982	0.136874	315.912170
4427.782509	1.136038	0.136874	1367.883057
4427.783417	0.661868	0.136874	1968.858887
4427.784353	0.103854	0.136874	2066.065918
4427.785249	0.085814	0.136874	2142.955566
4427.786148	0.085939	0.136874	2220.214355
4427.787035	0.085803	0.136874	2296.321777
4427.787977	0.085924	0.136874	2377.262207
4427.788874	0.085854	0.136874	2454.273682
4427.789774	0.085865	0.136874	2531.552734
4427.790667	0.085880	0.136874	2608.243652
4427.791622	0.086005	0.136874	2690.378174
4427.792533	0.085931	0.136874	2768.661621
4428.808700	0.760258	0.117716	365.683868
4428.809606	1.138345	0.117716	1397.024048
4428.810503	0.639335	0.117716	1970.507324
4428.811460	0.098811	0.117716	2065.069580
4428.812371	0.085822	0.117716	2143.252930
4428.813263	0.085950	0.117716	2219.920166
4428.814196	0.085986	0.117716	2300.145508
4428.815100	0.086060	0.117716	2377.943359
4428.816008	0.085854	0.117716	2455.899170
4428.816927	0.085844	0.117716	2534.789307
4428.817818	0.085884	0.117716	2611.311768
4428.818785	0.085887	0.117716	2694.364990
4428.819692	0.085785	0.117716	2772.171875
4429.820364	0.719857	0.135795	316.017303
4429.821318	1.138846	0.135795	1402.476807
4429.822247	0.612008	0.135795	1971.032227
4429.823148	0.099884	0.135795	2061.027832
4429.824089	0.085844	0.135795	2141.806641
4429.824986	0.085979	0.135795	2218.929687
4429.825886	0.085836	0.135795	2296.182129
4429.826775	0.085778	0.135795	2372.438477
4429.827724	0.086008	0.135795	2454.060303
4429.828617	0.085858	0.135795	2530.731689
4429.829513	0.085895	0.135795	2607.693359
4429.830399	0.085829	0.135795	2683.737793
4429.831343	0.085983	0.135795	2764.905518
4430.853073	0.716210	0.118384	315.132263
4430.854021	1.135258	0.118384	1391.356445
4430.854939	0.625415	0.118384	1965.487427
4430.855837	0.101158	0.118384	2056.327637
4430.856726	0.085730	0.118384	2132.541504
4430.857663	0.085865	0.118384	2212.997559
4430.858566	0.085803	0.118384	2290.477783
4430.859471	0.085858	0.118384	2368.179443
4430.860360	0.085854	0.118384	2444.504150
4430.861301	0.085972	0.118384	2525.403564
4430.862205	0.085822	0.118384	2602.986328
4430.863098	0.085858	0.118384	2679.657715
4430.864020	0.085862	0.118384	2758.822266
4431.860733	0.755178	0.134079	370.792511
4431.861650	1.139945	0.134079	1416.122070
4431.862557	0.617948	0.134079	1976.600830
4431.863446	0.101393	0.134079	2066.739014
4431.864388	0.085833	0.134079	2147.593262
4431.865287	0.085909	0.134079	2224.825928
4431.866185	0.085862	0.134079	2301.929932
4431.867101	0.085964	0.134079	2380.673340
4431.868023	0.086067	0.134079	2460.027100
4431.868929	0.085942	0.134079	2537.890869
4431.869825	0.085858	0.134079	2614.819824
4431.870761	0.085961	0.134079	2695.279053
4431.871659	0.085990	0.134079	2772.498047
4432.895445	0.728782	0.122227	326.494202
4432.896343	1.134891	0.122227	1345.626709
4432.897296	0.637577	0.122227	1953.237549
4432.898198	0.101415	0.122227	2044.713745
4432.899101	0.085704	0.122227	2122.104736
4432.899989	0.085865	0.122227	2198.353271
4432.900934	0.085979	0.122227	2279.603516
4432.901837	0.085880	0.122227	2357.153320
4432.902723	0.085884	0.122227	2433.246338
4432.903631	0.085895	0.122227	2511.238770
4432.904550	0.085891	0.122227	2590.172607
4432.905452	0.085898	0.122227	2667.653076
4432.906346	0.085906	0.122227	2744.452881
4433.901567	0.762092	0.133366	367.328461
4433.902487	1.139513	0.133366	1415.680298
4433.903383	0.629246	0.133366	1979.484375
4433.904329	0.100020	0.133366	2074.102783
4433.905239	0.085763	0.133366	2152.146973
4433.906141	0.085840	0.133366	2229.574463
4433.907025	0.085928	0.133366	2305.534668
4433.907959	0.085873	0.133366	2385.739746
4433.908860	0.085906	0.133366	2463.140869
4433.909752	0.085972	0.133366	2539.827637
4433.910664	0.085898	0.133366	2618.166992
4433.911589	0.085880	0.133366	2697.606201
4433.912496	0.085865	0.133366	2775.486084
4434.936264	0.717513	0.121313	313.553345
4434.937226	1.138876	0.121313	1409.151733
4434.938156	0.602640	0.121313	1969.607300
4434.939062	0.098950	0.121313	2059.256104
4434.939949	0.085840	0.121313	2135.395996
4434.940902	0.086005	0.121313	2217.358398
4434.941808	0.085847	0.121313	2295.135986
4434.942700	0.085935	0.121313	2371.790039
4434.943644	0.085917	0.121313	2452.895508
4434.944542	0.086030	0.121313	2530.150635
4434.945437	0.085858	0.121313	2606.993652
4434.946325	0.085858	0.121313	2683.235596
4434.947270	0.085968	0.121313	2764.475342
4435.943907	0.737054	0.134937	334.622742
4435.944823	1.136741	0.134937	1375.877197
4435.945734	0.652339	0.134937	1970.157959
4435.946637	0.103059	0.134937	2063.220215
4435.947572	0.085865	0.134937	2143.504395
4435.948486	0.085829	0.134937	2221.951904
4435.949384	0.085836	0.134937	2299.032715
4435.950319	0.085906	0.134937	2379.354492
4435.951218	0.085983	0.134937	2456.652832
4435.952124	0.085884	0.134937	2534.463623
4435.953011	0.085898	0.134937	2610.655518
4435.953950	0.086034	0.134937	2691.441406
4435.954851	0.085990	0.134937	2768.918457
4436.978139	0.723241	0.122715	326.904907
4436.979032	1.134576	0.122715	1340.081543
4436.979981	0.661611	0.122715	1967.950684
4436.980898	0.100730	0.122715	2060.320068
4436.981806	0.085686	0.122715	2138.123047
4436.982706	0.085811	0.122715	2215.352539
4436.983633	0.085869	0.122715	2294.953125
4436.984534	0.085939	0.122715	2372.383789
4436.985432	0.085862	0.122715	2449.487793
4436.986316	0.085862	0.122715	2525.389648
4436.987254	0.085961	0.122715	2606.020752
4436.988154	0.085865	0.122715	2683.299805
4436.989051	0.085957	0.122715	2760.403320
4437.985734	0.714899	0.133237	312.410706
4437.986697	1.135620	0.133237	1406.012939
4437.987617	0.616655	0.133237	1973.335815
4437.988513	0.101045	0.133237	2063.872070
4437.989402	0.085741	0.133237	2140.095703
4437.990347	0.085946	0.133237	2221.314697
4437.991247	0.085807	0.133237	2298.541016
4437.992151	0.085909	0.133237	2376.203125
4437.993038	0.085836	0.133237	2452.339844
4437.993989	0.085975	0.133237	2534.102295
4437.994898	0.085811	0.133237	2612.104004
4437.995797	0.085880	0.133237	2689.310303
4437.996719	0.085924	0.133237	2768.532227
4439.019981	0.724559	0.124390	317.356964
4439.020942	1.139084	0.124390	1412.017090
4439.021864	0.617234	0.124390	1981.106689
4439.022754	0.100763	0.124390	2070.785645
4439.023688	0.085880	0.124390	2150.997559
4439.024594	0.085844	0.124390	2228.771729
4439.025494	0.085807	0.124390	2305.998047
4439.026382	0.085891	0.124390	2382.269287
4439.027320	0.085920	0.124390	2462.862549
4439.028235	0.085858	0.124390	2541.422852
4439.029139	0.085887	0.124390	2619.065186
4439.030025	0.085880	0.124390	2695.155029
4439.030960	0.085898	0.124390	2775.469971
4440.027610	0.729067	0.135513	326.622192
4440.028516	1.135089	0.135513	1355.012817
4440.029414	0.670261	0.135513	1956.907349
4440.030381	0.099781	0.135513	2053.395996
4440.031286	0.085679	0.135513	2130.935303
4440.032176	0.085880	0.135513	2207.368652
4440.033107	0.085920	0.135513	2287.360596
4440.034003	0.085898	0.135513	2364.325684
4440.034892	0.085898	0.135513	2440.689453
4440.035783	0.085906	0.135513	2517.231445
4440.036723	0.085939	0.135513	2598.013916
4440.037621	0.085917	0.135513	2675.167236
4440.038525	0.085836	0.135513	2752.763184
4441.061836	0.715474	0.123742	314.092896
4441.062728	1.133577	0.123742	1325.243164
4441.063697	0.633746	0.123742	1939.343384
4441.064608	0.101635	0.123742	2031.932373
4441.065500	0.085748	0.123742	2108.419922
4441.066436	0.085994	0.123742	2188.909912
4441.067334	0.085931	0.123742	2266.076416
4441.068230	0.085902	0.123742	2343.044678
4441.069123	0.085917	0.123742	2419.768311
4441.070057	0.086041	0.123742	2500.130859
4441.070963	0.085898	0.123742	2577.954834
4441.071872	0.085895	0.123742	2656.033203
4441.072764	0.085884	0.123742	2732.641602
4442.068428	0.715162	0.136202	311.810791
4442.069325	1.133767	0.136202	1328.799805
4442.070294	0.632131	0.136202	1941.335205
4442.071204	0.100909	0.136202	2033.162842
4442.072099	0.085734	0.136202	2109.894531
4442.073029	0.085986	0.136202	2189.861816
4442.073932	0.085935	0.136202	2267.461182
4442.074832	0.085898	0.136202	2344.769775
4442.075717	0.085847	0.136202	2420.744629
4442.076661	0.085884	0.136202	2501.818848
4442.077556	0.085920	0.136202	2578.717529
4442.078456	0.085909	0.136202	2656.035889
4442.079362	0.085920	0.136202	2733.879883
4443.103230	0.740717	0.121841	362.951111
4443.104155	1.139601	0.121841	1417.082031
4443.105061	0.615813	0.121841	1975.008545
4443.105945	0.101147	0.121841	2064.422852
4443.106897	0.085833	0.121841	2146.135498
4443.107804	0.085814	0.121841	2223.968994
4443.108701	0.085924	0.121841	2301.042969
4443.109588	0.085873	0.121841	2377.212158
4443.110534	0.085880	0.121841	2458.454834
4443.111432	0.085895	0.121841	2535.588379
4443.112321	0.085800	0.121841	2611.864258
4443.113263	0.086023	0.121841	2692.897949
4443.114175	0.085935	0.121841	2771.270752
4444.111312	0.714840	0.138747	314.529633
4444.112203	1.132683	0.138747	1323.750366
4444.113151	0.658601	0.138747	1948.104248
4444.114062	0.103326	0.138747	2042.234619
4444.114958	0.085807	0.138747	2119.117676
4444.115881	0.085898	0.138747	2198.401855
4444.116800	0.085950	0.138747	2277.389648
4444.117712	0.085858	0.138747	2355.692383
4444.118607	0.085858	0.138747	2432.535400
4444.119540	0.085983	0.138747	2512.757324
4444.120441	0.085869	0.138747	2590.125488
4444.121341	0.085953	0.138747	2667.483398
4444.122225	0.085928	0.138747	2743.443604
4445.144032	0.727782	0.126046	327.501892
4445.144939	1.135320	0.126046	1357.237061
4445.145843	0.674553	0.126046	1967.033203
4445.146796	0.101074	0.126046	2063.356934
4445.147687	0.085668	0.126046	2139.686768
4445.148598	0.085906	0.126046	2217.947021
4445.149493	0.085803	0.126046	2294.740967
4445.150432	0.085909	0.126046	2375.409912
4445.151341	0.085917	0.126046	2453.508301
4445.152232	0.085891	0.126046	2530.037354
4445.153171	0.085957	0.126046	2610.750977
4445.154082	0.085990	0.126046	2689.087891
4445.154990	0.085833	0.126046	2767.023926
4446.153681	0.723347	0.138312	320.442810
4446.154595	1.135192	0.138312	1358.007812
4446.155498	0.663505	0.138312	1957.152588
4446.156469	0.099218	0.138312	2053.492920
4446.157379	0.085796	0.138312	2131.567139
4446.158277	0.085909	0.138312	2208.713867
4446.159205	0.085979	0.138312	2288.502441
4446.160102	0.085844	0.138312	2365.504150
4446.160997	0.085854	0.138312	2442.343994
4446.161881	0.085865	0.138312	2518.249023
4446.162818	0.086049	0.138312	2598.876465
4446.163718	0.085942	0.138312	2676.224609
4446.164625	0.085873	0.138312	2754.111328
4447.183367	0.748590	0.120733	374.295013
4447.184281	1.139919	0.120733	1416.181396
4447.185204	0.590731	0.120733	1961.426270
4447.186099	0.099012	0.120733	2050.042480
4447.187046	0.085756	0.120733	2131.252930
4447.187953	0.085869	0.120733	2209.136230
4447.188842	0.085898	0.120733	2285.500000
4447.189772	0.085920	0.120733	2365.406006
4447.190687	0.085873	0.120733	2443.979736
4447.191583	0.085858	0.120733	2520.908691
4447.192469	0.085902	0.120733	2597.018066
4447.193403	0.085931	0.120733	2677.278076
4447.194300	0.085763	0.120733	2754.207520
4448.198086	0.710186	0.140234	308.220520
4448.199027	1.134774	0.140234	1376.042969
4448.199947	0.643660	0.140234	1968.209839
4448.200841	0.103151	0.140234	2060.426514
4448.201727	0.085796	0.140234	2136.441650
4448.202674	0.085950	0.140234	2217.835937
4448.203571	0.085862	0.140234	2294.854004
4448.204467	0.085836	0.140234	2371.763184
4448.205396	0.085792	0.140234	2451.464111
4448.206288	0.085818	0.140234	2528.013672
4448.207231	0.085840	0.140234	2608.960693
4448.208144	0.085818	0.140234	2687.312500
4448.209043	0.086023	0.140234	2764.647217
4449.221577	0.715184	0.119750	312.535553
4449.222530	1.138802	0.119750	1397.814209
4449.223456	0.614978	0.119750	1967.283936
4449.224359	0.100082	0.119750	2057.657715
4449.225248	0.085836	0.119750	2133.966064
4449.226182	0.085884	0.119750	2214.181641
4449.227091	0.085792	0.119750	2292.166748
4449.227981	0.085880	0.119750	2368.600098
4449.228913	0.085964	0.119750	2448.718750
4449.229818	0.085950	0.119750	2526.503174
4449.230725	0.085833	0.119750	2604.353271
4449.231614	0.085822	0.119750	2680.648682
4449.232555	0.085887	0.119750	2761.468750
4450.243540	0.722985	0.143247	323.174133
4450.244441	1.134456	0.143247	1345.318604
4450.245404	0.645758	0.143247	1967.183594
4450.246307	0.100756	0.143247	2058.166016
4450.247199	0.085756	0.143247	2134.659912
4450.248088	0.085836	0.143247	2210.968262
4450.249021	0.085887	0.143247	2291.101318
4450.249926	0.085935	0.143247	2368.872559
4450.250829	0.085833	0.143247	2446.379395
4450.251715	0.085847	0.143247	2522.439941
4450.252660	0.085950	0.143247	2603.662354
4450.253565	0.085931	0.143247	2681.430176
4450.254463	0.085876	0.143247	2758.547363
4451.258887	0.766121	0.118541	382.294189
4451.259801	1.140432	0.118541	1424.649170
4451.260710	0.610503	0.118541	1979.596313
4451.261595	0.100895	0.118541	2068.888184
4451.262543	0.085833	0.118541	2150.257324
4451.263462	0.085902	0.118541	2229.201416
4451.264358	0.085858	0.118541	2306.130371
4451.265291	0.085946	0.118541	2386.318115
4451.266194	0.085891	0.118541	2463.877686
4451.267089	0.085935	0.118541	2540.789551
4451.267977	0.085891	0.118541	2617.060791
4451.268909	0.085986	0.118541	2697.199951
4451.269807	0.085946	0.118541	2774.379395
4452.288458	0.714049	0.144911	312.039429
4452.289424	1.139443	0.144911	1412.741699
4452.290342	0.616143	0.144911	1978.360596
4452.291230	0.101115	0.144911	2068.150391
4452.292141	0.085800	0.144911	2146.313721
4452.293057	0.085975	0.144911	2225.067139
4452.293951	0.085880	0.144911	2301.843994
4452.294839	0.085862	0.144911	2378.089355
4452.295778	0.086012	0.144911	2458.854492
4452.296686	0.085858	0.144911	2536.813721
4452.297590	0.085917	0.144911	2614.482422
4452.298480	0.085851	0.144911	2690.889648
4452.299422	0.085968	0.144911	2771.871582
4453.297619	0.726453	0.116245	324.724335
4453.298514	1.134664	0.116245	1340.248901
4453.299508	0.594060	0.116245	1930.744629
4453.300412	0.099104	0.116245	2020.334717
4453.301301	0.085822	0.116245	2096.630127
4453.302245	0.085829	0.116245	2177.652588
4453.303148	0.085854	0.116245	2255.179199
4453.304044	0.085869	0.116245	2332.117920
4453.304955	0.085902	0.116245	2410.374756
4453.305884	0.085990	0.116245	2490.259521
4453.306792	0.085803	0.116245	2568.168945
4453.307693	0.085909	0.116245	2645.573242
4453.308640	0.085939	0.116245	2726.957275
4454.331916	0.773500	0.144701	390.617401
4454.332838	1.141219	0.144701	1442.821777
4454.333743	0.595913	0.144701	1982.123169
4454.334628	0.099884	0.144701	2070.520508
4454.335558	0.085873	0.144701	2150.382324
4454.336472	0.085756	0.144701	2228.762939
4454.337372	0.085847	0.144701	2306.025391
4454.338297	0.085876	0.144701	2385.461182
4454.339198	0.085884	0.144701	2462.842529
4454.340097	0.085913	0.144701	2540.078369
4454.340984	0.085891	0.144701	2616.263672
4454.341934	0.086030	0.144701	2697.992432
4454.342838	0.085983	0.144701	2775.720703
4455.338973	0.724244	0.121925	323.737244
4455.339902	1.136576	0.121925	1379.616211
4455.340802	0.654448	0.121925	1968.619629
4455.341745	0.102059	0.121925	2064.861572
4455.342652	0.085891	0.121925	2142.764893
4455.343557	0.085829	0.121925	2220.439941
4455.344447	0.085840	0.121925	2296.837402
4455.345399	0.085986	0.121925	2378.696289
4455.346298	0.085939	0.121925	2455.955078
4455.347189	0.085884	0.121925	2532.477539
4455.348106	0.085862	0.121925	2611.212891
4455.349017	0.085913	0.121925	2689.479736
4455.349919	0.085770	0.121925	2766.844482
4456.372188	0.730305	0.145426	327.176697
4456.373105	1.136261	0.145426	1369.127930
4456.374019	0.653807	0.145426	1966.707764
4456.374950	0.102103	0.145426	2061.765869
4456.375853	0.085836	0.145426	2139.275879
4456.376749	0.085792	0.145426	2216.145752
4456.377636	0.085829	0.145426	2292.275879
4456.378588	0.085920	0.145426	2374.072021
4456.379496	0.085917	0.145426	2452.084473
4456.380391	0.085865	0.145426	2528.934082
4456.381303	0.085942	0.145426	2607.313477
4456.382223	0.086001	0.145426	2686.434326
4456.383126	0.085880	0.145426	2763.984131
4457.382880	0.733253	0.120922	333.630157
4457.383776	1.135173	0.120922	1350.745605
4457.384745	0.629476	0.120922	1960.708130
4457.385646	0.100107	0.120922	2050.905029
4457.386541	0.085734	0.120922	2127.636719
4457.387430	0.085884	0.120922	2203.987305
4457.388362	0.085953	0.120922	2284.095947
4457.389269	0.085873	0.120922	2361.982666
4457.390167	0.085876	0.120922	2439.099609
4457.391055	0.085990	0.120922	2515.458740
4457.392006	0.086005	0.120922	2597.249268
4457.392914	0.085807	0.120922	2675.161865
4457.393804	0.085862	0.120922	2751.578857
4458.410974	0.723578	0.144915	324.162903
4458.411868	1.134815	0.144915	1338.687012
4458.412833	0.622632	0.144915	1939.526733
4458.413737	0.100477	0.144915	2030.358154
4458.414628	0.085770	0.144915	2106.779541
4458.415555	0.085869	0.144915	2186.380127
4458.416469	0.085807	0.144915	2264.807617
4458.417388	0.085906	0.144915	2343.755127
4458.418278	0.085854	0.144915	2420.165527
4458.419222	0.085887	0.144915	2501.243164
4458.420120	0.085876	0.144915	2578.360352
4458.421039	0.085895	0.144915	2657.297607
4458.421925	0.085829	0.144915	2733.342041
4459.428318	0.727269	0.121832	325.816650
4459.429241	1.135975	0.121832	1374.321899
4459.430140	0.663655	0.121832	1970.947510
4459.431075	0.104081	0.121832	2068.263184
4459.431986	0.085847	0.121832	2146.469971
4459.432901	0.085884	0.121832	2225.053711
4459.433802	0.085865	0.121832	2302.418457
4459.434722	0.085957	0.121832	2381.499023
4459.435619	0.085920	0.121832	2458.569580
4459.436519	0.085913	0.121832	2535.891357
4459.437409	0.085920	0.121832	2612.360596
4459.438352	0.085997	0.121832	2693.456055
4459.439250	0.085884	0.121832	2770.579590
4460.449244	0.730371	0.143038	330.127747
4460.450148	1.135547	0.143038	1356.662109
4460.451048	0.678614	0.143038	1967.415161
4460.451987	0.104963	0.143038	2065.975830
4460.452901	0.085745	0.143038	2144.346436
4460.453790	0.085785	0.143038	2220.609131
4460.454713	0.085913	0.143038	2299.906982
4460.455625	0.085898	0.143038	2378.246338
4460.456519	0.085906	0.143038	2455.046143
4460.457410	0.085895	0.143038	2531.578369
4460.458340	0.085975	0.143038	2611.535400
4460.459254	0.085950	0.143038	2690.093506
4460.460161	0.085902	0.143038	2768.006836
4461.472217	0.730063	0.126018	327.068451
4461.473122	1.135371	0.126018	1354.579346
4461.474023	0.666196	0.126018	1954.822266
4461.474980	0.101371	0.126018	2051.834229
4461.475888	0.085774	0.126018	2129.717041
4461.476776	0.085840	0.126018	2205.942871
4461.477708	0.085983	0.126018	2286.078613
4461.478614	0.085964	0.126018	2363.962402
4461.479518	0.085774	0.126018	2441.501953
4461.480406	0.085906	0.126018	2517.786377
4461.481362	0.085979	0.126018	2599.982422
4461.482257	0.085862	0.126018	2676.828857
4461.483157	0.085913	0.126018	2754.150635
4462.487549	0.741804	0.142820	361.258636
4462.488459	1.139191	0.142820	1397.922241
4462.489365	0.632941	0.142820	1971.366455
4462.490252	0.102620	0.142820	2062.390137
4462.491205	0.085822	0.142820	2144.177979
4462.492099	0.085844	0.142820	2220.922119
4462.493002	0.085862	0.142820	2298.455322
4462.493890	0.085873	0.142820	2374.710449
4462.494839	0.086005	0.142820	2456.328857
4462.495750	0.085865	0.142820	2534.552246
4462.496645	0.085920	0.142820	2611.450928
4462.497567	0.085928	0.142820	2690.676270
4462.498461	0.085869	0.142820	2767.443359
4463.516618	0.715972	0.124378	315.743530
4463.517511	1.133705	0.124378	1328.141846
4463.518477	0.640082	0.124378	1946.460815
4463.519370	0.102180	0.124378	2037.707764
4463.520260	0.085752	0.124378	2114.027100
4463.521205	0.085898	0.124378	2195.201172
4463.522122	0.085884	0.124378	2273.956543
4463.523017	0.085854	0.124378	2350.796387
4463.523925	0.085796	0.124378	2428.698975
4463.524845	0.085902	0.124378	2507.729004
4463.525757	0.085895	0.124378	2586.064941
4463.526648	0.085844	0.124378	2662.551514
4463.527583	0.085884	0.124378	2742.852783
4464.526799	0.715437	0.141744	313.361389
4464.527744	1.138037	0.141744	1388.806396
4464.528675	0.622277	0.141744	1968.145996
4464.529571	0.100814	0.141744	2058.475586
4464.530481	0.085833	0.141744	2136.583252
4464.531406	0.085997	0.141744	2216.130859
4464.532313	0.085902	0.141744	2294.043945
4464.533214	0.085913	0.141744	2371.451660
4464.534153	0.086008	0.141744	2452.213379
4464.535048	0.085909	0.141744	2529.102295
4464.535949	0.085836	0.141744	2606.440674
4464.536835	0.085869	0.141744	2682.520752
4464.537769	0.085942	0.141744	2762.791016
4465.560008	0.712430	0.125039	309.194794
4465.560940	1.136627	0.125039	1368.531372
4465.561876	0.630948	0.125039	1959.099121
4465.562778	0.101246	0.125039	2050.423340
4465.563685	0.085730	0.125039	2128.180420
4465.564618	0.085887	0.125039	2208.313477
4465.565520	0.085818	0.125039	2285.721191
4465.566408	0.085884	0.125039	2361.986084
4465.567345	0.085924	0.125039	2442.496826
4465.568253	0.085752	0.125039	2520.359619
4465.569150	0.085895	0.125039	2597.407227
4465.570039	0.085836	0.125039	2673.715576
4465.570969	0.085741	0.125039	2753.454590
4466.567630	0.721761	0.141938	317.575043
4466.568608	1.140077	0.141938	1432.570312
4466.569517	0.607767	0.141938	1985.030762
4466.570405	0.100364	0.141938	2074.153809
4466.571336	0.085800	0.141938	2154.033203
4466.572236	0.085774	0.141938	2231.229736
4466.573154	0.085847	0.141938	2310.037354
4466.574051	0.085964	0.141938	2387.147461
4466.574994	0.085891	0.141938	2468.142822
4466.575899	0.085854	0.141938	2545.841064
4466.576788	0.085869	0.141938	2622.178711
4466.577729	0.085873	0.141938	2702.985107
4466.578630	0.085858	0.141938	2780.343262
4467.600862	0.731587	0.128544	330.677307
4467.601785	1.136437	0.128544	1379.608398
4467.602688	0.654218	0.128544	1970.366821
4467.603618	0.103425	0.128544	2066.552246
4467.604525	0.085906	0.128544	2144.468750
4467.605429	0.085807	0.128544	2222.038086
4467.606328	0.085840	0.128544	2299.208008
4467.607239	0.085898	0.128544	2377.461426
4467.608144	0.085928	0.128544	2455.226074
4467.609044	0.085851	0.128544	2532.491943
4467.609932	0.085829	0.128544	2608.708008
4467.610872	0.085968	0.128544	2689.518066
4467.611769	0.085781	0.128544	2766.463867
4468.608476	0.731935	0.138369	331.566467
4468.609382	1.135638	0.138369	1360.454834
4468.610345	0.618600	0.138369	1956.166504
4468.611250	0.100166	0.138369	2046.816772
4468.612146	0.085763	0.138369	2123.660400
4468.613033	0.085891	0.138369	2199.845703
4468.613968	0.085961	0.138369	2280.218994
4468.614870	0.085935	0.138369	2357.732422
4468.615771	0.085869	0.138369	2435.100586
4468.616663	0.085924	0.138369	2511.744873
4468.617612	0.085968	0.138369	2593.328613
4468.618517	0.085781	0.138369	2670.960693
4468.619410	0.085829	0.138369	2747.605957
4469.643776	0.764194	0.126683	371.398468
4469.644691	1.139714	0.126683	1414.237061
4469.645598	0.622877	0.126683	1979.186646
4469.646483	0.101686	0.126683	2069.178467
4469.647433	0.085854	0.126683	2150.740234
4469.648334	0.085891	0.126683	2228.128174
4469.649231	0.085891	0.126683	2305.172607
4469.650159	0.085898	0.126683	2384.886475
4469.651066	0.085858	0.126683	2462.759766
4469.651964	0.085847	0.126683	2539.850586
4469.652847	0.085854	0.126683	2615.660156
4469.653796	0.085895	0.126683	2697.174316
4469.654696	0.085807	0.126683	2774.400391
4470.649804	0.724907	0.143545	318.959167
4470.650759	1.138231	0.143545	1405.969971
4470.651677	0.617509	0.143545	1972.842773
4470.652574	0.100770	0.143545	2063.233643
4470.653498	0.085898	0.143545	2142.603760
4470.654407	0.085844	0.143545	2220.635498
4470.655307	0.085906	0.143545	2297.950684
4470.656193	0.085983	0.143545	2374.131348
4470.657145	0.085920	0.143545	2455.927490
4470.658048	0.085873	0.143545	2533.470703
4470.658941	0.085957	0.143545	2610.230225
4470.659843	0.085946	0.143545	2687.753662
4470.660756	0.086063	0.143545	2766.329346
4471.684584	0.746254	0.125623	349.992981
4471.685495	1.137708	0.125623	1386.444580
4471.686418	0.635277	0.125623	1972.805420
4471.687360	0.098785	0.125623	2065.861328
4471.688267	0.085785	0.125623	2143.668213
4471.689161	0.085840	0.125623	2220.408936
4471.690093	0.085957	0.125623	2300.520996
4471.690993	0.085950	0.125623	2377.875732
4471.691891	0.085880	0.125623	2454.996094
4471.692783	0.085865	0.125623	2531.588135
4471.693725	0.086034	0.125623	2612.632080
4471.694637	0.085924	0.125623	2690.994873
4471.695536	0.085942	0.125623	2768.257080
4472.692172	0.717451	0.140818	315.678528
4472.693130	1.135184	0.140818	1403.185059
4472.694061	0.602849	0.140818	1964.437622
4472.694960	0.099628	0.140818	2054.002930
4472.695848	0.085712	0.140818	2130.114990
4472.696794	0.085950	0.140818	2211.423340
4472.697690	0.085884	0.140818	2288.375244
4472.698590	0.085887	0.140818	2365.673828
4472.699475	0.085829	0.140818	2441.632324
4472.700404	0.086038	0.140818	2521.561279
4472.701317	0.085803	0.140818	2599.899658
4472.702213	0.085833	0.140818	2676.805664
4472.703152	0.085833	0.140818	2757.402344
4473.726464	0.745616	0.132451	365.352051
4473.727390	1.140897	0.132451	1421.822876
4473.728304	0.602761	0.132451	1972.746582
4473.729191	0.100232	0.132451	2061.652344
4473.730149	0.085917	0.132451	2143.960693
4473.731048	0.085836	0.132451	2221.127441
4473.731947	0.085913	0.132451	2298.363281
4473.732840	0.085939	0.132451	2375.106445
4473.733760	0.085946	0.132451	2454.176758
4473.734676	0.085847	0.132451	2532.812744
4473.735577	0.085862	0.132451	2610.174316
4473.736498	0.085939	0.132451	2689.323975
4473.737402	0.085935	0.132451	2767.009277
4474.733067	0.749725	0.144729	377.111847
4474.733980	1.140685	0.144729	1418.557007
4474.734889	0.607958	0.144729	1971.190674
4474.735777	0.100642	0.144729	2060.560791
4474.736715	0.085829	0.144729	2141.068359
4474.737621	0.085906	0.144729	2218.898926
4474.738525	0.085935	0.144729	2296.584229
4474.739424	0.085811	0.144729	2373.728027
4474.740346	0.085865	0.144729	2452.895996
4474.741261	0.085873	0.144729	2531.469727
4474.742153	0.085862	0.144729	2608.058350
4474.743081	0.085975	0.144729	2687.843506
4474.743991	0.085913	0.144729	2766.024414
4475.767784	0.739354	0.132427	342.320984
4475.768683	1.136323	0.132427	1363.875488
4475.769659	0.610031	0.132427	1959.265259
4475.770560	0.099529	0.132427	2048.940674
4475.771450	0.085807	0.132427	2125.308838
4475.772337	0.085884	0.132427	2201.487793
4475.773266	0.085997	0.132427	2281.379395
4475.774166	0.085972	0.132427	2358.753906
4475.775069	0.085873	0.132427	2436.297119
4475.775968	0.085931	0.132427	2513.549316
4475.776916	0.086005	0.132427	2595.081787
4475.777820	0.085895	0.132427	2672.730713
4475.778711	0.085873	0.132427	2749.243408
4476.774863	0.715532	0.147191	316.265259
4476.775756	1.133558	0.147191	1328.532715
4476.776735	0.635980	0.147191	1951.157349
4476.777634	0.101210	0.147191	2042.144897
4476.778530	0.085789	0.147191	2119.011475
4476.779453	0.085913	0.147191	2198.309326
4476.780366	0.086038	0.147191	2276.861572
4476.781267	0.085906	0.147191	2354.262695
4476.782157	0.085935	0.147191	2430.744873
4476.783105	0.085968	0.147191	2512.242676
4476.784006	0.085928	0.147191	2589.663574
4476.784902	0.085931	0.147191	2666.658203
4476.785789	0.085869	0.147191	2742.824219
4477.809101	0.722791	0.132395	317.305054
4477.810035	1.137250	0.132395	1379.496338
4477.810965	0.632219	0.132395	1967.460205
4477.811860	0.101821	0.132395	2058.590332
4477.812793	0.085957	0.132395	2138.788330
4477.813697	0.085939	0.132395	2216.477051
4477.814602	0.085873	0.132395	2294.191895
4477.815489	0.085825	0.132395	2370.318848
4477.816429	0.085961	0.132395	2451.121826
4477.817334	0.085939	0.132395	2528.896484
4477.818224	0.085986	0.132395	2605.424316
4477.819128	0.085939	0.132395	2683.113037
4477.820045	0.086019	0.132395	2761.992676
4478.816233	0.742057	0.146901	342.088196
4478.817145	1.137305	0.146901	1379.310059
4478.818061	0.636068	0.146901	1961.948486
4478.818984	0.100459	0.146901	2054.672119
4478.819874	0.085785	0.146901	2131.020752
4478.820832	0.085858	0.146901	2213.272949
4478.821733	0.085818	0.146901	2290.594971
4478.822625	0.085939	0.146901	2367.252197
4478.823561	0.085920	0.146901	2447.673584
4478.824467	0.085924	0.146901	2525.520752
4478.825375	0.085840	0.146901	2603.463379
4478.826272	0.085935	0.146901	2680.547119
4478.827223	0.085887	0.146901	2762.226074
4479.849953	0.734553	0.129382	332.752594
4479.850870	1.136726	0.129382	1375.130371
4479.851772	0.658883	0.129382	1969.442871
4479.852713	0.101785	0.129382	2065.222168
4479.853606	0.085865	0.129382	2141.900146
4479.854504	0.085887	0.129382	2219.027100
4479.855392	0.085928	0.129382	2295.330811
4479.856333	0.085983	0.129382	2376.240479
4479.857237	0.085895	0.129382	2453.889404
4479.858136	0.085983	0.129382	2531.187744
4479.859067	0.085887	0.129382	2611.148926
4479.859967	0.085964	0.129382	2688.516846
4479.860876	0.085840	0.129382	2766.545166
4480.859608	0.723926	0.146260	319.975189
4480.860534	1.136265	0.146260	1372.156372
4480.861450	0.647596	0.146260	1965.354736
4480.862373	0.100913	0.146260	2058.497559
4480.863262	0.085708	0.146260	2134.691895
4480.864208	0.085884	0.146260	2215.937988
4480.865127	0.085825	0.146260	2294.811279
4480.866017	0.085840	0.146260	2371.208740
4480.866974	0.085811	0.146260	2453.329346
4480.867868	0.085741	0.146260	2529.981689
4480.868781	0.085825	0.146260	2608.340088
4480.869677	0.085854	0.146260	2685.265625
4480.870636	0.085811	0.146260	2767.557861
4481.890268	0.722794	0.129821	323.089020
4481.891165	1.134752	0.129821	1340.961670
4481.892100	0.661392	0.129821	1959.362793
4481.893037	0.100085	0.129821	2053.142822
4481.893946	0.085704	0.129821	2131.048096
4481.894841	0.085803	0.129821	2207.842041
4481.895776	0.085902	0.129821	2288.160400
4481.896678	0.085913	0.129821	2365.654053
4481.897580	0.085884	0.129821	2443.121338
4481.898466	0.085785	0.129821	2519.126709
4481.899415	0.085964	0.129821	2600.706787
4481.900317	0.085770	0.129821	2678.071533
4481.901207	0.085844	0.129821	2754.472168
4482.903046	0.739351	0.145487	369.675323
4482.903970	1.141249	0.145487	1424.189087
4482.904917	0.557087	0.145487	1951.750732
4482.905802	0.097646	0.145487	2038.167847
4482.906742	0.085690	0.145487	2118.716064
4482.907654	0.085796	0.145487	2196.961914
4482.908549	0.085715	0.145487	2273.677246
4482.909481	0.085986	0.145487	2353.816406
4482.910387	0.085865	0.145487	2431.610596
4482.911286	0.085902	0.145487	2508.836670
4482.912175	0.085792	0.145487	2585.105957
4482.913128	0.085975	0.145487	2667.040527
4482.914036	0.085814	0.145487	2744.959717
4483.930071	0.725215	0.128032	326.346680
4483.930966	1.134558	0.128032	1341.776123
4483.931892	0.665204	0.128032	1957.754883
4483.932823	0.101224	0.128032	2051.994873
4483.933735	0.085796	0.128032	2130.240723
4483.934631	0.085906	0.128032	2207.212402
4483.935560	0.085964	0.128032	2287.073242
4483.936464	0.085986	0.128032	2364.804932
4483.937368	0.085873	0.128032	2442.433838
4483.938254	0.085836	0.128032	2518.484619
4483.939194	0.085964	0.128032	2599.291016
4483.940095	0.085887	0.128032	2676.675537
4483.940982	0.085942	0.128032	2752.906494
4484.947403	0.716356	0.147763	315.196747
4484.948294	1.133459	0.147763	1325.109131
4484.949253	0.656506	0.147763	1954.698730
4484.950159	0.102795	0.147763	2047.831421
4484.951064	0.085774	0.147763	2125.456787
4484.951991	0.085961	0.147763	2205.142334
4484.952902	0.085997	0.147763	2283.485840
4484.953800	0.085829	0.147763	2360.560059
4484.954687	0.085902	0.147763	2436.755127
4484.955635	0.086034	0.147763	2518.315186
4484.956531	0.085887	0.147763	2595.270264
4484.957426	0.085876	0.147763	2672.129639
4484.958313	0.085851	0.147763	2748.279297
4485.968368	0.731356	0.126622	349.588257
4485.969294	1.140113	0.126622	1405.333374
4485.970218	0.606409	0.126622	1965.655029
4485.971111	0.100067	0.126622	2055.014893
4485.972047	0.085865	0.126622	2135.385010
4485.972955	0.085851	0.126622	2213.337646
4485.973856	0.085869	0.126622	2290.705811
4485.974743	0.085814	0.126622	2366.822998
4485.975682	0.085939	0.126622	2447.519531
4485.976585	0.085858	0.126622	2525.049316
4485.977473	0.085931	0.126622	2601.356445
4485.978394	0.085920	0.126622	2680.489258
4485.979307	0.085953	0.126622	2758.964600
4486.992326	0.724380	0.147279	315.829620
4486.993309	1.140718	0.147279	1437.155273
4486.994227	0.593207	0.147279	1981.718994
4486.995113	0.099814	0.147279	2070.154541
4486.996058	0.085829	0.147279	2151.262695
4486.996961	0.085917	0.147279	2228.845459
4486.997851	0.085942	0.147279	2305.334229
4486.998780	0.085898	0.147279	2385.133789
4486.999695	0.085906	0.147279	2463.737549
4487.000601	0.085840	0.147279	2541.508545
4487.001486	0.085822	0.147279	2617.460693
4487.002417	0.085964	0.147279	2697.493408
4487.003327	0.085895	0.147279	2775.657715
4488.006614	0.725021	0.128536	324.084290
4488.007510	1.134060	0.128536	1340.202148
4488.008469	0.640232	0.128536	1954.184570
4488.009363	0.102762	0.128536	2046.054199
4488.010265	0.085807	0.128536	2123.451904
4488.011151	0.085902	0.128536	2199.561279
4488.012083	0.085906	0.128536	2279.625488
4488.012992	0.085917	0.128536	2357.723877
4488.013887	0.085887	0.128536	2434.593262
4488.014807	0.085917	0.128536	2513.636719
4488.015726	0.086019	0.128536	2592.688477
4488.016636	0.085836	0.128536	2670.799316
4488.017531	0.085939	0.128536	2747.714355
4489.036242	0.724376	0.152967	324.520538
4489.037145	1.134873	0.152967	1349.310913
4489.038085	0.662164	0.152967	1971.745361
4489.039006	0.100708	0.152967	2064.497559
4489.039915	0.085767	0.152967	2142.459473
4489.040810	0.085917	0.152967	2219.354980
4489.041759	0.085939	0.152967	2300.910889
4489.042656	0.085961	0.152967	2378.017578
4489.043547	0.085778	0.152967	2454.445312
4489.044435	0.085851	0.152967	2530.680908
4489.045374	0.085964	0.152967	2611.401367
4489.046278	0.085858	0.152967	2689.017090
4489.047181	0.085862	0.152967	2766.550293
4490.045916	0.729862	0.126924	327.708069
4490.046816	1.134954	0.126924	1349.166260
4490.047715	0.676161	0.126924	1957.034912
4490.048666	0.101407	0.126924	2053.473389
4490.049576	0.085741	0.126924	2131.497559
4490.050474	0.085829	0.126924	2208.571777
4490.051399	0.085942	0.126924	2288.068359
4490.052303	0.086052	0.126924	2365.859619
4490.053200	0.086001	0.126924	2443.002441
4490.054088	0.085858	0.126924	2519.244385
4490.055030	0.085957	0.126924	2600.215820
4490.055929	0.085964	0.126924	2677.497803
4490.056823	0.085950	0.126924	2754.336914
4491.079655	0.739772	0.149567	339.555206
4491.080551	1.135628	0.149567	1357.077393
4491.081520	0.612517	0.149567	1950.606445
4491.082419	0.100430	0.149567	2040.892700
4491.083312	0.085811	0.149567	2117.521484
4491.084196	0.085840	0.149567	2193.403809
4491.085130	0.086001	0.149567	2273.728760
4491.086037	0.085854	0.149567	2351.598877
4491.086935	0.085906	0.149567	2428.742187
4491.087849	0.085931	0.149567	2507.283447
4491.088760	0.086001	0.149567	2585.630371
4491.089665	0.085811	0.149567	2663.288818
4491.090556	0.085825	0.149567	2739.759033
4492.086225	0.723607	0.127746	323.452423
4492.087123	1.134477	0.127746	1342.213257
4492.088075	0.646311	0.127746	1957.501343
4492.088984	0.101887	0.127746	2050.116699
4492.089891	0.085792	0.127746	2127.930176
4492.090785	0.085913	0.127746	2204.736572
4492.091724	0.086078	0.127746	2285.563721
4492.092629	0.085906	0.127746	2363.308350
4492.093518	0.085935	0.127746	2439.704590
4492.094437	0.085906	0.127746	2518.652100
4492.095355	0.085950	0.127746	2597.553955
4492.096264	0.085708	0.127746	2675.462646
4492.097163	0.085935	0.127746	2752.718262
4493.119956	0.720432	0.152645	319.871857
4493.120848	1.134401	0.152645	1331.757202
4493.121828	0.614784	0.152645	1934.245483
4493.122743	0.099547	0.152645	2025.331055
4493.123639	0.085759	0.152645	2102.171387
4493.124579	0.085898	0.152645	2182.916016
4493.125479	0.085935	0.152645	2260.257568
4493.126379	0.085807	0.152645	2337.483887
4493.127270	0.085851	0.152645	2413.977051
4493.128220	0.085946	0.152645	2495.625732
4493.129120	0.085862	0.152645	2572.901367
4493.130019	0.085822	0.152645	2650.054932
4493.130923	0.085833	0.152645	2727.647461
4494.129625	0.719550	0.127754	318.040894
4494.130521	1.133826	0.127754	1333.948730
4494.131492	0.625767	0.127754	1941.568115
4494.132400	0.101360	0.127754	2033.602905
4494.133290	0.085811	0.127754	2109.974365
4494.134205	0.085924	0.127754	2188.594971
4494.135127	0.086001	0.127754	2267.887939
4494.136037	0.085880	0.127754	2346.038818
4494.136928	0.085917	0.127754	2422.590576
4494.137851	0.086034	0.127754	2502.000000
4494.138754	0.085939	0.127754	2579.602783
4494.139656	0.085822	0.127754	2657.013916
4494.140543	0.085873	0.127754	2733.183105
4495.158748	0.729478	0.151272	330.453308
4495.159654	1.135880	0.151272	1359.560791
4495.160550	0.669877	0.151272	1959.770264
4495.161491	0.101572	0.151272	2055.349854
4495.162401	0.085748	0.151272	2133.380859
4495.163298	0.085939	0.151272	2210.467773
4495.164237	0.085873	0.151272	2291.102295
4495.165149	0.085836	0.151272	2369.384766
4495.166050	0.085854	0.151272	2446.739746
4495.166943	0.085865	0.151272	2523.417725
4495.167907	0.085953	0.151272	2606.276855
4495.168809	0.085880	0.151272	2683.740723
4495.169707	0.085818	0.151272	2760.805176
4496.175073	0.727577	0.127988	328.137177
4496.175977	1.134620	0.127988	1353.833984
4496.176912	0.654580	0.127988	1965.866333
4496.177799	0.103781	0.127988	2057.919678
4496.178737	0.085737	0.127988	2138.341309
4496.179647	0.085800	0.127988	2216.418945
4496.180570	0.085789	0.127988	2295.601807
4496.181457	0.085847	0.127988	2371.748291
4496.182417	0.085789	0.127988	2454.105225
4496.183315	0.085781	0.127988	2531.136719
4496.184205	0.085898	0.127988	2607.586426
4496.185160	0.085803	0.127988	2689.528564
4496.186072	0.085785	0.127988	2767.764404
4497.197584	0.771661	0.148488	391.232300
4497.198500	1.141219	0.148488	1436.589355
4497.199404	0.606786	0.148488	1985.123779
4497.200288	0.100686	0.148488	2074.130127
4497.201243	0.085909	0.148488	2156.173584
4497.202142	0.085818	0.148488	2233.323730
4497.203034	0.085847	0.148488	2309.899414
4497.203955	0.085898	0.148488	2389.011963
4497.204873	0.085942	0.148488	2467.906982
4497.205783	0.085818	0.148488	2546.001221
4497.206681	0.085873	0.148488	2623.114990
4497.207624	0.085928	0.148488	2704.144775
4497.208526	0.085983	0.148488	2781.701172
4498.219980	0.714917	0.133454	313.848541
4498.220939	1.138953	0.133454	1406.104126
4498.221857	0.636801	0.133454	1990.687012
4498.222752	0.102323	0.133454	2082.266113
4498.223638	0.085752	0.133454	2158.242432
4498.224581	0.085913	0.133454	2239.258545
4498.225477	0.085847	0.133454	2316.177734
4498.226374	0.085876	0.133454	2393.208984
4498.227306	0.085957	0.133454	2473.321045
4498.228205	0.085895	0.133454	2550.540527
4498.229103	0.085811	0.133454	2627.598389
4498.229992	0.085844	0.133454	2703.913330
4498.230941	0.085880	0.133454	2785.413574
4499.236304	0.717319	0.151948	317.772491
4499.237201	1.133756	0.151948	1334.751709
4499.238154	0.654093	0.151948	1958.102295
4499.239063	0.103059	0.151948	2051.782959
4499.239985	0.085818	0.151948	2130.906982
4499.240873	0.085917	0.151948	2207.201172
4499.241816	0.085920	0.151948	2288.224121
4499.242719	0.085873	0.151948	2365.767334
4499.243610	0.085913	0.151948	2442.315918
4499.244513	0.085862	0.151948	2519.849121
4499.245460	0.085789	0.151948	2601.090820
4499.246361	0.085865	0.151948	2678.455566
4499.247246	0.085884	0.151948	2754.462646
4500.263943	0.765634	0.132641	382.051117
4500.264873	1.141747	0.132641	1443.875610
4500.265782	0.591416	0.132641	1981.472900
4500.266671	0.099419	0.132641	2069.856445
4500.267632	0.085898	0.132641	2152.404785
4500.268540	0.085865	0.132641	2230.370605
4500.269434	0.085887	0.132641	2307.154053
4500.270373	0.085865	0.132641	2387.781738
4500.271275	0.086027	0.132641	2465.377686
4500.272165	0.085818	0.132641	2541.755615
4500.273057	0.085862	0.132641	2618.344238
4500.273991	0.085942	0.132641	2698.614502
4500.274901	0.085898	0.132641	2776.781982
4501.275603	0.719821	0.151525	320.320160
4501.276495	1.133492	0.151525	1331.395386
4501.277448	0.641118	0.151525	1942.380981
4501.278365	0.101796	0.151525	2035.727539
4501.279261	0.085767	0.151525	2112.574463
4501.280188	0.085840	0.151525	2192.147949
4501.281095	0.085895	0.151525	2270.054443
4501.282005	0.085836	0.151525	2348.165283
4501.282898	0.085829	0.151525	2424.810547
4501.283840	0.085986	0.151525	2505.809570
4501.284738	0.085851	0.151525	2582.903564
4501.285641	0.085939	0.151525	2660.506348
4501.286567	0.085924	0.151525	2740.072021
4502.307291	0.727595	0.133768	323.779877
4502.308220	1.136649	0.133768	1379.727051
4502.309122	0.657341	0.133768	1972.648926
4502.310039	0.103824	0.133768	2067.855957
4502.310963	0.085822	0.133768	2147.155029
4502.311861	0.085869	0.133768	2224.265625
4502.312760	0.085844	0.133768	2301.438965
4502.313686	0.085924	0.133768	2381.004639
4502.314586	0.085869	0.133768	2458.286865
4502.315492	0.085880	0.133768	2536.094238
4502.316380	0.085887	0.133768	2612.362305
4502.317314	0.086049	0.133768	2692.731689
4502.318219	0.085818	0.133768	2770.396973
4503.315915	0.716140	0.150933	313.669373
4503.316862	1.135796	0.150933	1389.268066
4503.317790	0.622654	0.150933	1967.090820
4503.318695	0.100605	0.150933	2058.138672
4503.319583	0.085891	0.150933	2134.409912
4503.320535	0.086001	0.150933	2216.282715
4503.321428	0.085920	0.150933	2293.009521
4503.322327	0.085924	0.150933	2370.255371
4503.323225	0.085979	0.150933	2447.464600
4503.324151	0.085961	0.150933	2527.064209
4503.325053	0.085942	0.150933	2604.584229
4503.325954	0.085942	0.150933	2682.018311
4503.326884	0.086027	0.150933	2762.022949
4504.350210	0.767911	0.133430	380.116119
4504.351132	1.141282	0.133430	1432.377808
4504.352046	0.597173	0.133430	1978.193848
4504.352935	0.099796	0.133430	2066.912598
4504.353890	0.085851	0.133430	2148.900146
4504.354793	0.085854	0.133430	2226.426758
4504.355685	0.085865	0.133430	2303.018799
4504.356630	0.085876	0.133430	2384.172119
4504.357522	0.085917	0.133430	2460.809814
4504.358421	0.085862	0.133430	2537.999512
4504.359316	0.085909	0.133430	2614.888428
4504.360253	0.085902	0.133430	2695.378662
4504.361154	0.085873	0.133430	2772.750000
4505.357262	0.715378	0.151280	313.335754
4505.358176	1.134562	0.151280	1350.325195
4505.359089	0.671107	0.151280	1963.046021
4505.360042	0.103920	0.151280	2062.081543
4505.360936	0.085876	0.151280	2138.854980
4505.361837	0.085928	0.151280	2216.275879
4505.362723	0.085953	0.151280	2292.430664
4505.363654	0.085964	0.151280	2372.463379
4505.364558	0.085818	0.151280	2450.042725
4505.365459	0.085865	0.151280	2527.407471
4505.366365	0.085920	0.151280	2605.251465
4505.367289	0.085909	0.151280	2684.631836
4505.368193	0.085737	0.151280	2762.138428
4506.390995	0.729518	0.135271	328.283020
4506.391901	1.135455	0.135271	1357.005615
4506.392803	0.667895	0.135271	1959.447266
4506.393773	0.099569	0.135271	2056.029297
4506.394681	0.085785	0.135271	2133.921875
4506.395577	0.085800	0.135271	2210.798340
4506.396511	0.085891	0.135271	2291.020752
4506.397409	0.085939	0.135271	2368.193848
4506.398309	0.085833	0.135271	2445.443115
4506.399194	0.085924	0.135271	2521.485840
4506.400124	0.085964	0.135271	2601.432617
4506.401029	0.085909	0.135271	2679.180664
4506.401930	0.085884	0.135271	2756.562012
4507.398614	0.724076	0.149342	325.110077
4507.399509	1.133774	0.149342	1339.838135
4507.400502	0.603120	0.149342	1938.736328
4507.401412	0.098910	0.149342	2028.744385
4507.402305	0.085759	0.149342	2105.327393
4507.403196	0.085829	0.149342	2181.801025
4507.404144	0.085873	0.149342	2263.208496
4507.405044	0.085814	0.149342	2340.441406
4507.405930	0.085792	0.149342	2416.453369
4507.406859	0.085858	0.149342	2496.215576
4507.407762	0.085920	0.149342	2573.801758
4507.408654	0.085796	0.149342	2650.331787
4507.409540	0.085906	0.149342	2726.444336
4508.432328	0.714492	0.138723	312.233093
4508.433303	1.140516	0.138723	1424.236572
4508.434225	0.595107	0.138723	1972.925537
4508.435123	0.099214	0.138723	2062.019531
4508.436010	0.085767	0.138723	2138.094482
4508.436963	0.085939	0.138723	2219.994141
4508.437868	0.085858	0.138723	2297.695801
4508.438756	0.085811	0.138723	2373.895508
4508.439682	0.085836	0.138723	2453.379883
4508.440583	0.085869	0.138723	2530.748047
4508.441488	0.085869	0.138723	2608.459717
4508.442379	0.085825	0.138723	2684.929932
4508.443328	0.085854	0.138723	2766.405762
4509.439950	0.725977	0.148508	323.059540
4509.440913	1.139919	0.148508	1420.802002
4509.441833	0.603486	0.148508	1976.009399
4509.442728	0.099954	0.148508	2065.467773
4509.443669	0.085891	0.148508	2146.291260
4509.444588	0.085884	0.148508	2225.218506
4509.445494	0.085851	0.148508	2302.999268
4509.446381	0.085961	0.148508	2379.246338
4509.447329	0.085887	0.148508	2460.667725
4509.448231	0.085913	0.148508	2538.161377
4509.449119	0.085811	0.148508	2614.361084
4509.450050	0.085913	0.148508	2694.346191
4509.450959	0.085862	0.148508	2772.394531
4510.474698	0.715862	0.132197	314.979187
4510.475590	1.133027	0.132197	1325.639526
4510.476567	0.632021	0.132197	1943.124512
4510.477467	0.101602	0.132197	2034.565918
4510.478358	0.085778	0.132197	2110.993652
4510.479283	0.085898	0.132197	2190.449707
4510.480206	0.085917	0.132197	2269.750977
4510.481119	0.085840	0.132197	2348.122803
4510.482017	0.085851	0.132197	2425.216797
4510.482946	0.085975	0.132197	2505.087891
4510.483846	0.085887	0.132197	2582.386719
4510.484739	0.085858	0.132197	2659.058105
4510.485623	0.085865	0.132197	2734.963135
4511.482897	0.773086	0.152097	388.862244
4511.483816	1.141179	0.152097	1437.605957
4511.484723	0.602750	0.152097	1984.300415
4511.485611	0.100067	0.152097	2073.160156
4511.486545	0.085909	0.152097	2153.399658
4511.487455	0.085818	0.152097	2231.493896
4511.488350	0.085895	0.152097	2308.369629
4511.489279	0.085887	0.152097	2388.159180
4511.490181	0.085986	0.152097	2465.718750
4511.491086	0.085778	0.152097	2543.347412
4511.491972	0.085961	0.152097	2619.508545
4511.492916	0.086019	0.152097	2700.710693
4511.493809	0.085935	0.152097	2777.450684
4512.515533	0.717261	0.139352	314.160187
4512.516426	1.133998	0.139352	1326.820190
4512.517401	0.627726	0.139352	1938.852905
4512.518296	0.101829	0.139352	2029.989502
4512.519181	0.085715	0.139352	2105.847656
4512.520119	0.085972	0.139352	2186.489014
4512.521013	0.085829	0.139352	2263.219971
4512.521900	0.085873	0.139352	2339.389160
4512.522811	0.086005	0.139352	2417.739502
4512.523733	0.085946	0.139352	2496.981689
4512.524644	0.085858	0.139352	2575.198486
4512.525535	0.085898	0.139352	2651.733887
4512.526476	0.085994	0.139352	2732.653809
4513.525765	0.744873	0.153946	370.201904
4513.526679	1.140198	0.153946	1412.342651
4513.527586	0.618237	0.153946	1973.083984
4513.528474	0.101393	0.153946	2063.120850
4513.529413	0.085781	0.153946	2143.669434
4513.530311	0.085902	0.153946	2220.809570
4513.531210	0.085917	0.153946	2298.048828
4513.532098	0.085902	0.153946	2374.329834
4513.533052	0.085862	0.153946	2456.241943
4513.533968	0.085836	0.153946	2534.867920
4513.534869	0.085880	0.153946	2612.245850
4513.535797	0.085961	0.153946	2692.017334
4513.536691	0.085950	0.153946	2768.856445
4514.555331	0.713972	0.136713	310.577881
4514.556281	1.136770	0.136713	1390.509399
4514.557214	0.618640	0.136713	1967.700684
4514.558111	0.100437	0.136713	2057.792725
4514.559041	0.085854	0.136713	2137.637451
4514.559948	0.085920	0.136713	2215.567383
4514.560842	0.085818	0.136713	2292.288574
4514.561733	0.085763	0.136713	2368.703369
4514.562665	0.085942	0.136713	2448.801758
4514.563564	0.085851	0.136713	2525.981689
4514.564468	0.085840	0.136713	2603.580811
4514.565355	0.085884	0.136713	2679.759766
4514.566303	0.085990	0.136713	2761.278320
4515.569094	0.711390	0.151972	310.877594
4515.570023	1.134357	0.151972	1364.694946
4515.570968	0.614824	0.151972	1945.703857
4515.571893	0.098969	0.151972	2037.249756
4515.572795	0.085686	0.151972	2114.538574
4515.573746	0.085800	0.151972	2196.134033
4515.574642	0.085825	0.151972	2273.033447
4515.575531	0.085844	0.151972	2349.348389
4515.576466	0.085814	0.151972	2429.584717
4515.577375	0.085862	0.151972	2507.633057
4515.578290	0.085884	0.151972	2586.216797
4515.579179	0.085884	0.151972	2662.567383
4515.580130	0.085876	0.151972	2744.235840
4516.594122	0.713789	0.135916	312.639618
4516.595017	1.133313	0.135916	1326.954712
4516.595991	0.629887	0.135916	1940.464111
4516.596900	0.100884	0.135916	2032.167480
4516.597791	0.085829	0.135916	2108.641113
4516.598722	0.085840	0.135916	2188.558105
4516.599626	0.085935	0.135916	2266.243408
4516.600531	0.085858	0.135916	2343.945068
4516.601420	0.085840	0.135916	2420.256592
4516.602362	0.086008	0.135916	2501.276367
4516.603267	0.085975	0.135916	2579.083984
4516.604163	0.085840	0.135916	2655.996582
4516.605049	0.085844	0.135916	2732.053955
4517.613525	0.723450	0.156218	323.382019
4517.614424	1.134415	0.156218	1343.221436
4517.615354	0.660663	0.156218	1957.637939
4517.616254	0.103920	0.156218	2051.165527
4517.617214	0.085803	0.156218	2133.536621
4517.618134	0.085869	0.156218	2212.536133
4517.619021	0.085950	0.156218	2288.773437
4517.619963	0.085946	0.156218	2369.734619
4517.620862	0.085778	0.156218	2446.848633
4517.621778	0.085895	0.156218	2525.528320
4517.622672	0.085840	0.156218	2602.269043
4517.623604	0.085781	0.156218	2682.217285
4517.624508	0.085913	0.156218	2759.882812
4518.632405	0.726262	0.132504	323.186676
4518.633324	1.135858	0.132504	1367.040283
4518.634228	0.678351	0.132504	1980.269409
4518.635150	0.106128	0.132504	2078.119385
4518.636051	0.085876	0.132504	2155.494141
4518.636952	0.085873	0.132504	2232.865479
4518.637850	0.085924	0.132504	2310.025391
4518.638777	0.085942	0.132504	2389.694092
4518.639681	0.085862	0.132504	2467.313232
4518.640582	0.085829	0.132504	2544.645020
4518.641469	0.085902	0.132504	2620.840088
4518.642422	0.085884	0.132504	2702.687256
4518.643326	0.085880	0.132504	2780.322998
4519.658442	0.714825	0.153777	313.808380
4519.659410	1.136261	0.153777	1413.708984
4519.660322	0.618981	0.153777	1978.219360
4519.661209	0.100833	0.153777	2067.657715
4519.662132	0.085876	0.153777	2146.921631
4519.663053	0.085928	0.153777	2226.061035
4519.663956	0.085887	0.153777	2303.617432
4519.664851	0.085891	0.153777	2380.489990
4519.665782	0.085961	0.153777	2460.519287
4519.666686	0.085858	0.153777	2538.135010
4519.667581	0.085862	0.153777	2614.981445
4519.668465	0.085920	0.153777	2690.935059
4519.669403	0.085979	0.153777	2771.583252
4520.670668	0.715836	0.130155	314.252075
4520.671614	1.134961	0.130155	1387.925171
4520.672552	0.611481	0.130155	1961.494141
4520.673457	0.099690	0.130155	2051.713623
4520.674356	0.085785	0.130155	2128.834229
4520.675283	0.085994	0.130155	2208.550293
4520.676187	0.085913	0.130155	2286.215820
4520.677090	0.085873	0.130155	2363.759033
4520.677978	0.085880	0.130155	2440.020508
4520.678911	0.086038	0.130155	2520.293701
4520.679818	0.085869	0.130155	2598.177002
4520.680709	0.085880	0.130155	2674.696289
4520.681645	0.085898	0.130155	2755.097168
4521.702365	0.732158	0.152899	328.739014
4521.703284	1.136598	0.152899	1373.272583
4521.704181	0.665500	0.152899	1970.226562
4521.705128	0.102832	0.152899	2067.608398
4521.706036	0.085800	0.152899	2145.514404
4521.706932	0.085822	0.152899	2222.410400
4521.707820	0.085862	0.152899	2298.655762
4521.708757	0.085920	0.152899	2379.163086
4521.709664	0.085829	0.152899	2457.009766
4521.710560	0.085840	0.152899	2533.922363
4521.711486	0.085983	0.152899	2613.542236
4521.712388	0.085895	0.152899	2691.019287
4521.713299	0.085961	0.152899	2769.329590
4522.710476	0.717023	0.133865	314.055939
4522.711425	1.134972	0.133865	1391.144287
4522.712350	0.627162	0.133865	1971.269043
4522.713263	0.100389	0.133865	2062.924561
4522.714152	0.085803	0.133865	2139.203613
4522.715086	0.085997	0.133865	2219.525146
4522.715996	0.085968	0.133865	2297.756104
4522.716902	0.085902	0.133865	2375.583496
4522.717794	0.085902	0.133865	2452.208252
4522.718743	0.086049	0.133865	2533.868408
4522.719646	0.085891	0.133865	2611.427979
4522.720535	0.085876	0.133865	2687.772217
4522.721467	0.085946	0.133865	2767.874023
4523.745243	0.730334	0.154921	327.920166
4523.746160	1.136082	0.154921	1369.707031
4523.747075	0.651361	0.154921	1965.702393
4523.748014	0.102927	0.154921	2062.351074
4523.748917	0.085898	0.154921	2139.917480
4523.749827	0.085796	0.154921	2217.991699
4523.750718	0.085928	0.154921	2294.553223
4523.751647	0.085891	0.154921	2374.346191
4523.752551	0.085957	0.154921	2452.051270
4523.753448	0.085792	0.154921	2529.006836
4523.754332	0.085796	0.154921	2604.850342
4523.755279	0.085990	0.154921	2686.282959
4523.756185	0.085847	0.154921	2764.060547
4524.751817	0.723977	0.132322	317.825928
4524.752774	1.138887	0.132322	1407.740601
4524.753690	0.621566	0.132322	1977.095215
4524.754578	0.101488	0.132322	2067.216553
4524.755513	0.085844	0.132322	2147.480225
4524.756427	0.085752	0.132322	2225.857422
4524.757353	0.085774	0.132322	2305.284180
4524.758243	0.085811	0.132322	2381.655518
4524.759201	0.085906	0.132322	2463.953125
4524.760111	0.085679	0.132322	2541.920654
4524.761030	0.085825	0.132322	2620.793945
4524.761916	0.085898	0.132322	2696.899902
4524.762861	0.085975	0.132322	2778.146484
4525.785045	0.724321	0.156613	319.425690
4525.785959	1.135349	0.156613	1357.134766
4525.786869	0.669020	0.156613	1965.942749
4525.787800	0.104718	0.156613	2063.435303
4525.788712	0.085906	0.156613	2141.781250
4525.789619	0.085898	0.156613	2219.691162
4525.790509	0.085902	0.156613	2296.144043
4525.791456	0.085909	0.156613	2377.500244
4525.792363	0.085990	0.156613	2455.493164
4525.793260	0.085990	0.156613	2532.626221
4525.794150	0.085891	0.156613	2609.069336
4525.795084	0.085986	0.156613	2689.380615
4525.795992	0.085865	0.156613	2767.346436
4526.795740	0.731473	0.130542	329.894501
4526.796644	1.135415	0.130542	1356.309814
4526.797564	0.661212	0.130542	1964.625000
4526.798490	0.101111	0.130542	2058.253662
4526.799401	0.085792	0.130542	2136.410400
4526.800297	0.085822	0.130542	2213.306396
4526.801224	0.085961	0.130542	2292.991943
4526.802135	0.085946	0.130542	2371.288818
4526.803037	0.085818	0.130542	2448.696533
4526.803924	0.085920	0.130542	2524.907959
4526.804875	0.085961	0.130542	2606.656494
4526.805780	0.085862	0.130542	2684.361328
4526.806671	0.085836	0.130542	2760.841309
4527.824401	0.753761	0.159441	382.910583
4527.825322	1.141637	0.159441	1434.358154
4527.826235	0.596191	0.159441	1978.680908
4527.827123	0.099935	0.159441	2067.423340
4527.828078	0.085902	0.159441	2149.459961
4527.828989	0.085920	0.159441	2227.733398
4527.829879	0.085898	0.159441	2304.183105
4527.830780	0.085924	0.159441	2381.600586
4527.831719	0.085968	0.159441	2462.324463
4527.832622	0.085913	0.159441	2539.904053
4527.833521	0.085986	0.159441	2617.205811
4527.834452	0.085950	0.159441	2697.225098
4527.835350	0.085942	0.159441	2774.401367
4528.839626	0.715880	0.136298	314.271362
4528.840520	1.133357	0.136298	1327.492432
4528.841491	0.634380	0.136298	1943.475342
4528.842402	0.101484	0.136298	2035.927612
4528.843294	0.085840	0.136298	2112.496826
4528.844217	0.085844	0.136298	2191.730469
4528.845118	0.086001	0.136298	2269.217285
4528.846025	0.085906	0.136298	2347.133789
4528.846916	0.085869	0.136298	2423.643311
4528.847864	0.085909	0.136298	2505.085449
4528.848770	0.085939	0.136298	2582.946045
4528.849675	0.085986	0.136298	2660.763672
4528.850560	0.085880	0.136298	2736.767578
4529.863119	0.719656	0.158917	317.368195
4529.864061	1.135093	0.158917	1386.625488
4529.864987	0.626085	0.158917	1966.380371
4529.865883	0.101711	0.158917	2057.513916
4529.866771	0.085785	0.158917	2133.690918
4529.867710	0.085924	0.158917	2214.373535
4529.868611	0.085880	0.158917	2291.751465
4529.869503	0.085950	0.158917	2368.418701
4529.870392	0.085931	0.158917	2444.811768
4529.871332	0.085972	0.158917	2525.625244
4529.872237	0.085906	0.158917	2603.369873
4529.873133	0.085913	0.158917	2680.347900
4529.874060	0.085939	0.158917	2760.013184
4530.884054	0.723215	0.137430	320.384399
4530.885009	1.136580	0.137430	1405.817993
4530.885926	0.618750	0.137430	1973.211792
4530.886840	0.099078	0.137430	2063.769531
4530.887738	0.085836	0.137430	2140.850342
4530.888669	0.085924	0.137430	2220.845703
4530.889574	0.085778	0.137430	2298.474365
4530.890464	0.085957	0.137430	2374.976074
4530.891367	0.085957	0.137430	2452.595215
4530.892314	0.085906	0.137430	2533.947998
4530.893209	0.085895	0.137430	2610.823730
4530.894091	0.085931	0.137430	2686.615234
4530.895042	0.085920	0.137430	2768.325439
4531.902428	0.723486	0.157620	324.845337
4531.903325	1.133976	0.157620	1342.021729
4531.904298	0.620380	0.157620	1945.651123
4531.905199	0.100682	0.157620	2036.365967
4531.906094	0.085796	0.157620	2113.153320
4531.906982	0.085854	0.157620	2189.392090
4531.907942	0.086096	0.157620	2272.044434
4531.908851	0.085851	0.157620	2350.082764
4531.909752	0.085865	0.157620	2427.447510
4531.910676	0.085950	0.157620	2506.864990
4531.911578	0.085990	0.157620	2584.427979
4531.912472	0.085884	0.157620	2661.208008
4531.913361	0.085964	0.157620	2737.630371
4532.927970	0.731755	0.137410	328.558167
4532.928899	1.137045	0.137410	1384.872559
4532.929799	0.652137	0.137410	1971.796265
4532.930756	0.100034	0.137410	2067.529053
4532.931656	0.085591	0.137410	2144.560791
4532.932549	0.085909	0.137410	2221.277832
4532.933443	0.085902	0.137410	2298.074219
4532.934373	0.086027	0.137410	2378.078857
4532.935283	0.085924	0.137410	2456.269775
4532.936182	0.085884	0.137410	2533.479248
4532.937112	0.085887	0.137410	2613.354492
4532.938015	0.086082	0.137410	2691.086182
4532.938910	0.085876	0.137410	2767.945557
4533.942228	0.718304	0.156657	316.053955
4533.943121	1.133210	0.156657	1328.010864
4533.944088	0.635328	0.156657	1942.373291
4533.944990	0.101986	0.156657	2034.364746
4533.945883	0.085796	0.156657	2110.980469
4533.946768	0.085818	0.156657	2186.929199
4533.947713	0.086008	0.156657	2268.207031
4533.948619	0.085913	0.156657	2346.044189
4533.949524	0.085829	0.156657	2423.719238
4533.950413	0.085913	0.156657	2500.095947
4533.951345	0.085946	0.156657	2580.197754
4533.952258	0.085884	0.156657	2658.609619
4533.953178	0.085909	0.156657	2737.646240
4534.970312	0.722318	0.141160	316.375336
4534.971281	1.139293	0.141160	1420.350586
4534.972184	0.622822	0.141160	1982.759033
4534.973072	0.101400	0.141160	2072.802246
4534.974009	0.085847	0.141160	2153.240967
4534.974924	0.085869	0.141160	2231.811279
4534.975831	0.085920	0.141160	2309.741211
4534.976736	0.085917	0.141160	2387.495850
4534.977673	0.086049	0.141160	2468.123291
4534.978580	0.085909	0.141160	2546.043213
4534.979470	0.085935	0.141160	2622.525391
4534.980411	0.086034	0.141160	2703.483398
4534.981313	0.085917	0.141160	2780.980225
4535.982029	0.712771	0.157668	311.480927
4535.982923	1.132665	0.157668	1324.083252
4535.983909	0.613824	0.157668	1929.314209
4535.984818	0.099910	0.157668	2020.132080
4535.985718	0.085829	0.157668	2097.378174
4535.986611	0.085928	0.157668	2174.111572
4535.987543	0.085928	0.157668	2254.196289
4535.988448	0.085847	0.157668	2331.887939
4535.989337	0.085887	0.157668	2408.241943
4535.990274	0.086012	0.157668	2488.835205
4535.991177	0.085942	0.157668	2566.441162
4535.992078	0.085873	0.157668	2643.812500
4535.992969	0.085884	0.157668	2720.334961
4537.012684	0.716246	0.140226	312.999634
4537.013633	1.137041	0.140226	1392.051514
4537.014564	0.617179	0.140226	1966.645142
4537.015470	0.100291	0.140226	2057.508301
4537.016358	0.085734	0.140226	2133.639893
4537.017305	0.085844	0.140226	2214.933594
4537.018206	0.085869	0.140226	2292.301758
4537.019102	0.085931	0.140226	2369.296387
4537.020041	0.085957	0.140226	2450.010010
4537.020943	0.085939	0.140226	2527.526855
4537.021833	0.085873	0.140226	2603.953613
4537.022726	0.085854	0.140226	2680.621582
4537.023649	0.085924	0.140226	2759.929443
4538.022862	0.718722	0.160706	315.518921
4538.023804	1.137773	0.160706	1387.301514
4538.024736	0.623002	0.160706	1967.939209
4538.025632	0.100968	0.160706	2058.406494
4538.026552	0.085737	0.160706	2137.284912
4538.027440	0.085920	0.160706	2213.582275
4538.028383	0.085887	0.160706	2294.574219
4538.029276	0.085840	0.160706	2371.229248
4538.030163	0.085869	0.160706	2447.395264
4538.031111	0.085887	0.160706	2528.816650
4538.032010	0.085876	0.160706	2606.019531
4538.032922	0.085873	0.160706	2684.335449
4538.033820	0.085961	0.160706	2761.528076
4539.056653	0.759210	0.135928	383.401154
4539.057568	1.140879	0.135928	1427.305176
4539.058476	0.607950	0.135928	1979.324219
4539.059364	0.100594	0.135928	2068.652100
4539.060291	0.085807	0.135928	2148.195068
4539.061200	0.085902	0.135928	2226.280029
4539.062096	0.085862	0.135928	2303.212158
4539.063009	0.085854	0.135928	2381.597412
4539.063938	0.085935	0.135928	2461.431152
4539.064844	0.085844	0.135928	2539.205322
4539.065739	0.085781	0.135928	2615.979492
4539.066681	0.085964	0.135928	2696.958008
4539.067576	0.085975	0.135928	2773.906006
4540.063234	0.755698	0.159783	373.314941
4540.064158	1.141000	0.159783	1427.598755
4540.065070	0.603369	0.159783	1977.871460
4540.065957	0.100415	0.159783	2066.939697
4540.066901	0.085975	0.159783	2148.100342
4540.067805	0.085862	0.159783	2225.719482
4540.068695	0.085880	0.159783	2302.152832
4540.069602	0.085909	0.159783	2380.072754
4540.070526	0.085964	0.159783	2459.503906
4540.071428	0.085796	0.159783	2536.891846
4540.072327	0.085902	0.159783	2614.117920
4540.073239	0.085847	0.159783	2692.410645
4540.074129	0.085880	0.159783	2768.843994
4541.096403	0.717155	0.144137	314.113678
4541.097354	1.136418	0.144137	1394.847656
4541.098273	0.629293	0.144137	1973.168091
4541.099164	0.101770	0.144137	2063.845215
4541.100106	0.085785	0.144137	2144.654541
4541.101014	0.085928	0.144137	2222.677002
4541.101919	0.085876	0.144137	2300.395264
4541.102807	0.085909	0.144137	2376.682861
4541.103745	0.085909	0.144137	2457.265869
4541.104655	0.085895	0.144137	2535.430176
4541.105553	0.085836	0.144137	2612.510986
4541.106435	0.085836	0.144137	2688.218506
4541.107375	0.085865	0.144137	2768.932129
4542.105049	0.728053	0.163018	326.167725
4542.105951	1.135129	0.163018	1350.054443
4542.106912	0.623840	0.163018	1949.564941
4542.107821	0.100485	0.163018	2040.905518
4542.108722	0.085781	0.163018	2118.194336
4542.109610	0.085884	0.163018	2194.459229
4542.110550	0.085858	0.163018	2275.166016
4542.111451	0.085902	0.163018	2352.563721
4542.112340	0.085887	0.163018	2428.917725
4542.113274	0.085913	0.163018	2509.160645
4542.114186	0.085898	0.163018	2587.500000
4542.115093	0.085891	0.163018	2665.403320
4542.115977	0.085920	0.163018	2741.356934
4543.137237	0.732883	0.144468	323.934448
4543.138205	1.140385	0.144468	1427.826660
4543.139146	0.587322	0.144468	1980.496582
4543.140038	0.099001	0.144468	2068.805908
4543.140991	0.085862	0.144468	2150.632324
4543.141886	0.085844	0.144468	2227.462158
4543.142771	0.085836	0.144468	2303.427246
4543.143706	0.085862	0.144468	2383.708008
4543.144615	0.085847	0.144468	2461.743164
4543.145534	0.085909	0.144468	2540.693848
4543.146432	0.085884	0.144468	2617.817383
4543.147373	0.085862	0.144468	2698.613281
4543.148276	0.085847	0.144468	2776.133301
4544.146947	0.743972	0.158740	369.010193
4544.147862	1.140081	0.158740	1412.183838
4544.148785	0.601066	0.158740	1966.967407
4544.149680	0.099686	0.158740	2056.186523
4544.150634	0.085869	0.158740	2138.105713
4544.151543	0.085847	0.158740	2216.140869
4544.152430	0.085873	0.158740	2292.310059
4544.153380	0.086052	0.158740	2374.059570
4544.154287	0.085873	0.158740	2451.946289
4544.155187	0.085847	0.158740	2529.208740
4544.156072	0.085876	0.158740	2605.209473
4544.157008	0.085953	0.158740	2685.661865
4544.157913	0.085869	0.158740	2763.373535
4545.178578	0.713038	0.144560	313.736877
4545.179535	1.138264	0.144560	1403.055664
4545.180453	0.619669	0.144560	1971.911987
4545.181352	0.100682	0.144560	2062.425537
4545.182242	0.085752	0.144560	2138.744873
4545.183188	0.085994	0.144560	2220.094971
4545.184093	0.085844	0.144560	2297.783447
4545.184989	0.085917	0.144560	2374.764893
4545.185914	0.085913	0.144560	2454.234375
4545.186814	0.085939	0.144560	2531.579102
4545.187712	0.085811	0.144560	2608.636963
4545.188600	0.085778	0.144560	2684.807373
4545.189540	0.085950	0.144560	2765.600098
4546.189795	0.728086	0.157390	329.822937
4546.190724	1.136785	0.157390	1385.895996
4546.191620	0.652694	0.157390	1970.709961
4546.192555	0.102854	0.157390	2066.878418
4546.193458	0.085811	0.157390	2144.365234
4546.194362	0.085851	0.157390	2221.974365
4546.195254	0.085807	0.157390	2298.514160
4546.196208	0.085935	0.157390	2380.496094
4546.197109	0.085781	0.157390	2457.784912
4546.198011	0.085898	0.157390	2535.265381
4546.198899	0.085909	0.157390	2611.552979
4546.199841	0.085847	0.157390	2692.420898
4546.200745	0.085679	0.157390	2769.874512
4547.219449	0.738809	0.144419	359.060974
4547.220358	1.139147	0.144419	1394.545410
4547.221268	0.631033	0.144419	1968.785156
4547.222154	0.102561	0.144419	2059.654297
4547.223109	0.085876	0.144419	2141.666260
4547.224028	0.085811	0.144419	2220.526123
4547.224921	0.085865	0.144419	2297.204102
4547.225807	0.085836	0.144419	2373.254883
4547.226754	0.085939	0.144419	2454.638916
4547.227659	0.085851	0.144419	2532.333984
4547.228548	0.085778	0.144419	2608.590332
4547.229479	0.085807	0.144419	2688.476562
4547.230385	0.085931	0.144419	2766.330322
4548.232137	0.715598	0.161963	312.716400
4548.233093	1.139396	0.161963	1401.978882
4548.234023	0.608416	0.161963	1967.805420
4548.234929	0.099558	0.161963	2058.005127
4548.235821	0.085800	0.161963	2134.538330
4548.236784	0.085814	0.161963	2217.177490
4548.237686	0.085869	0.161963	2294.631348
4548.238573	0.085917	0.161963	2370.839600
4548.239517	0.086067	0.161963	2452.086670
4548.240419	0.085942	0.161963	2529.606689
4548.241308	0.085913	0.161963	2605.983398
4548.242228	0.085924	0.161963	2685.033447
4548.243137	0.085942	0.161963	2763.155029
4549.259242	0.745258	0.140411	344.308990
4549.260152	1.137744	0.140411	1379.656128
4549.261072	0.640280	0.140411	1968.713379
4549.261982	0.102228	0.140411	2061.740723
4549.262909	0.085854	0.140411	2141.327881
4549.263816	0.085814	0.140411	2219.161377
4549.264709	0.085924	0.140411	2295.891602
4549.265652	0.085858	0.140411	2376.855957
4549.266551	0.085891	0.140411	2454.072021
4549.267451	0.085891	0.140411	2531.374023
4549.268341	0.085847	0.140411	2607.778076
4549.269291	0.085972	0.140411	2689.451172
4549.270201	0.085917	0.140411	2767.635498
4550.275588	0.763619	0.163800	379.518829
4550.276503	1.139934	0.163800	1422.558472
4550.277416	0.607335	0.163800	1977.055542
4550.278303	0.100507	0.163800	2066.204834
4550.279262	0.085803	0.163800	2148.490234
4550.280171	0.085880	0.163800	2226.555176
4550.281063	0.085767	0.163800	2303.059082
4550.281987	0.085836	0.163800	2382.371826
4550.282874	0.085822	0.163800	2458.495605
4550.283809	0.085836	0.163800	2538.752441
4550.284710	0.085789	0.163800	2616.047852
4550.285597	0.085836	0.163800	2692.184570
4550.286525	0.085898	0.163800	2771.898437
4551.298556	0.734670	0.141454	359.988525
4551.299473	1.139886	0.141454	1405.264404
4551.300395	0.607734	0.141454	1965.595459
4551.301285	0.100389	0.141454	2054.942139
4551.302231	0.085909	0.141454	2136.212402
4551.303129	0.085829	0.141454	2213.286621
4551.304031	0.085909	0.141454	2290.776855
4551.304920	0.086005	0.141454	2367.234863
4551.305873	0.085950	0.141454	2449.145020
4551.306784	0.085902	0.141454	2527.401855
4551.307679	0.085873	0.141454	2604.258057
4551.308608	0.085891	0.141454	2684.050781
4551.309510	0.085961	0.141454	2761.587402
4552.319958	0.727141	0.161536	326.486359
4552.320861	1.134551	0.161536	1350.985718
4552.321758	0.689590	0.161536	1969.547852
4552.322681	0.107186	0.161536	2068.480713
4552.323590	0.085767	0.161536	2146.442627
4552.324478	0.085913	0.161536	2222.733398
4552.325364	0.085748	0.161536	2298.706299
4552.326296	0.085986	0.161536	2378.845459
4552.327201	0.085847	0.161536	2456.537109
4552.328129	0.085891	0.161536	2536.244141
4552.329017	0.085836	0.161536	2612.466553
4552.329966	0.085931	0.161536	2694.015381
4552.330864	0.085876	0.161536	2771.132324
4553.338367	0.733337	0.138268	359.335327
4553.339295	1.140696	0.138268	1417.901001
4553.340205	0.602889	0.138268	1966.530273
4553.341091	0.100547	0.138268	2055.614746
4553.342043	0.085865	0.138268	2137.358643
4553.342944	0.085950	0.138268	2214.799316
4553.343842	0.085928	0.138268	2291.962402
4553.344728	0.085909	0.138268	2368.078125
4553.345658	0.086104	0.138268	2448.154297
4553.346574	0.085851	0.138268	2526.793701
4553.347470	0.085880	0.138268	2603.742187
4553.348400	0.085946	0.138268	2683.672119
4553.349307	0.086052	0.138268	2761.721436
4554.364367	0.719319	0.162055	319.377563
4554.365337	1.139989	0.162055	1425.166870
4554.366257	0.602025	0.162055	1979.030029
4554.367152	0.099664	0.162055	2068.229492
4554.368036	0.085763	0.162055	2144.043945
4554.368978	0.085920	0.162055	2224.980957
4554.369885	0.085895	0.162055	2302.887451
4554.370783	0.085862	0.162055	2379.991455
4554.371714	0.086016	0.162055	2460.072021
4554.372618	0.085862	0.162055	2537.691162
4554.373516	0.085847	0.162055	2614.781982
4554.374406	0.085818	0.162055	2691.159912
4554.375351	0.086008	0.162055	2772.437744
4555.377101	0.716492	0.140274	313.106873
4555.377999	1.134086	0.140274	1331.515869
4555.378965	0.635083	0.140274	1945.006104
4555.379875	0.101232	0.140274	2037.126953
4555.380774	0.085792	0.140274	2114.254150
4555.381721	0.085880	0.140274	2195.582520
4555.382623	0.085770	0.140274	2272.947266
4555.383525	0.085902	0.140274	2350.430908
4555.384410	0.085854	0.140274	2426.412109
4555.385347	0.085902	0.140274	2506.902344
4555.386250	0.085997	0.140274	2584.557861
4555.387149	0.085836	0.140274	2661.724609
4555.388060	0.085972	0.140274	2740.044922
4556.408323	0.759913	0.163643	373.877350
4556.409249	1.140930	0.163643	1430.378662
4556.410162	0.600194	0.163643	1978.355835
4556.411050	0.100199	0.163643	2067.332520
4556.412004	0.085913	0.163643	2149.293701
4556.412910	0.085895	0.163643	2227.114258
4556.413797	0.085924	0.163643	2303.328857
4556.414726	0.085887	0.163643	2383.118408
4556.415634	0.085785	0.163643	2461.011230
4556.416540	0.085876	0.163643	2538.815430
4556.417436	0.085906	0.163643	2615.787109
4556.418366	0.085968	0.163643	2695.737305
4556.419267	0.085950	0.163643	2773.177979
4557.416415	0.735516	0.142425	333.924408
4557.417310	1.135001	0.142425	1349.750488
4557.418282	0.619006	0.142425	1951.424561
4557.419185	0.100679	0.142425	2042.337402
4557.420079	0.085811	0.142425	2119.052002
4557.420970	0.085880	0.142425	2195.571289
4557.421907	0.085924	0.142425	2276.082031
4557.422809	0.085880	0.142425	2353.545898
4557.423705	0.085906	0.142425	2430.517578
4557.424632	0.085939	0.142425	2510.182861
4557.425534	0.086005	0.142425	2587.759033
4557.426441	0.085844	0.142425	2665.619141
4557.427329	0.085957	0.142425	2741.948975
4558.451202	0.739168	0.164243	364.409576
4558.452116	1.140172	0.164243	1406.526855
4558.453030	0.614993	0.164243	1968.630127
4558.453918	0.100693	0.164243	2058.045898
4558.454874	0.085763	0.164243	2140.035156
4558.455770	0.085880	0.164243	2216.983643
4558.456672	0.085873	0.164243	2294.440918
4558.457558	0.085924	0.164243	2370.569580
4558.458495	0.085968	0.164243	2451.121582
4558.459405	0.085869	0.164243	2529.262451
4558.460307	0.085807	0.164243	2606.660156
4558.461242	0.085917	0.164243	2686.992432
4558.462148	0.085884	0.164243	2764.803223
4559.457794	0.737043	0.137575	363.362427
4559.458706	1.140209	0.137575	1403.232910
4559.459620	0.613173	0.137575	1963.672607
4559.460507	0.101049	0.137575	2053.302734
4559.461443	0.085869	0.137575	2133.676270
4559.462345	0.085906	0.137575	2211.163330
4559.463246	0.085946	0.137575	2288.600830
4559.464134	0.085862	0.137575	2364.846191
4559.465077	0.085957	0.137575	2445.903564
4559.465983	0.085884	0.137575	2523.714355
4559.466878	0.085887	0.137575	2600.583496
4559.467813	0.085994	0.137575	2680.987549
4559.468710	0.086001	0.137575	2758.130371
4560.491488	0.732052	0.164650	327.959320
4560.492410	1.136638	0.164650	1375.939697
4560.493312	0.664241	0.164650	1975.084839
4560.494226	0.104183	0.164650	2070.308350
4560.495151	0.085935	0.164650	2149.798340
4560.496060	0.085887	0.164650	2227.870117
4560.496957	0.085906	0.164650	2304.927490
4560.497888	0.085979	0.164650	2384.973877
4560.498788	0.085953	0.164650	2462.331787
4560.499692	0.086023	0.164650	2540.096436
4560.500580	0.085854	0.164650	2616.335205
4560.501519	0.085979	0.164650	2697.069580
4560.502423	0.085939	0.164650	2774.758301
4561.500618	0.728950	0.140202	320.738098
4561.501595	1.140494	0.140202	1435.000977
4561.502521	0.594492	0.140202	1985.500732
4561.503408	0.099203	0.140202	2073.493652
4561.504333	0.085869	0.140202	2152.922607
4561.505249	0.085928	0.140202	2231.632324
4561.506146	0.085796	0.140202	2308.591309
4561.507038	0.085862	0.140202	2385.179932
4561.507985	0.086074	0.140202	2466.692139
4561.508882	0.085898	0.140202	2543.742920
4561.509781	0.085909	0.140202	2620.975586
4561.510666	0.085891	0.140202	2696.989258
4561.511608	0.086034	0.140202	2778.033203
4562.531803	0.728577	0.167288	324.216614
4562.532717	1.135895	0.167288	1362.424316
4562.533620	0.671385	0.167288	1968.685303
4562.534558	0.105062	0.167288	2067.233643
4562.535473	0.085763	0.167288	2145.706787
4562.536379	0.085825	0.167288	2223.464355
4562.537264	0.085920	0.167288	2299.503906
4562.538207	0.085946	0.167288	2380.551025
4562.539114	0.085887	0.167288	2458.450928
4562.540009	0.085873	0.167288	2535.307129
4562.540949	0.085983	0.167288	2616.130859
4562.541844	0.086008	0.167288	2693.108398
4562.542745	0.085946	0.167288	2770.545898
4563.544544	0.729437	0.143626	325.329010
4563.545460	1.135968	0.143626	1365.875610
4563.546361	0.670232	0.143626	1969.754517
4563.547278	0.105399	0.143626	2066.405518
4563.548197	0.085946	0.143626	2145.389893
4563.549101	0.085920	0.143626	2223.062012
4563.549995	0.085968	0.143626	2299.917480
4563.550925	0.085931	0.143626	2379.833740
4563.551833	0.086005	0.143626	2457.926025
4563.552739	0.085876	0.143626	2535.729980
4563.553625	0.085898	0.143626	2611.835937
4563.554565	0.085994	0.143626	2692.669922
4563.555472	0.085858	0.143626	2770.543213
4564.571079	0.719835	0.163787	315.287842
4564.572059	1.140553	0.163787	1433.029785
4564.572969	0.602867	0.163787	1981.639160
4564.573856	0.100316	0.163787	2070.619629
4564.574816	0.085942	0.163787	2153.124268
4564.575722	0.085833	0.163787	2230.888428
4564.576617	0.085953	0.163787	2307.816650
4564.577505	0.085961	0.163787	2384.149658
4564.578433	0.085957	0.163787	2463.917725
4564.579339	0.085858	0.163787	2541.705322
4564.580227	0.085917	0.163787	2617.999512
4564.581162	0.085979	0.163787	2698.389893
4564.582078	0.085873	0.163787	2777.049316
4565.588954	0.731624	0.144871	333.620331
4565.589847	1.134639	0.144871	1346.852661
4565.590800	0.629224	0.144871	1946.502808
4565.591712	0.100763	0.144871	2038.398560
4565.592621	0.085759	0.144871	2116.353760
4565.593506	0.085818	0.144871	2192.302490
4565.594469	0.085975	0.144871	2275.096680
4565.595379	0.085836	0.144871	2353.207520
4565.596277	0.085898	0.144871	2430.344238
4565.597201	0.085983	0.144871	2509.792236
4565.598102	0.085935	0.144871	2587.219727
4565.599002	0.085858	0.144871	2664.492187
4565.599922	0.085785	0.144871	2743.414307
4566.609353	0.710625	0.166156	308.411255
4566.610280	1.133778	0.166156	1359.423584
4566.611228	0.633995	0.166156	1960.451172
4566.612130	0.101027	0.166156	2051.577148
4566.613028	0.085796	0.166156	2128.621826
4566.613946	0.086067	0.166156	2207.631348
4566.614853	0.085953	0.166156	2285.591064
4566.615752	0.085964	0.166156	2362.873047
4566.616639	0.085986	0.166156	2439.142822
4566.617604	0.086023	0.166156	2522.155029
4566.618505	0.085906	0.166156	2599.556152
4566.619399	0.086008	0.166156	2676.447510
4566.620318	0.085942	0.166156	2755.428467
4567.632849	0.718315	0.145733	315.340485
4567.633800	1.136254	0.145733	1395.917603
4567.634715	0.629850	0.145733	1972.230225
4567.635611	0.101766	0.145733	2063.412842
4567.636498	0.085800	0.145733	2139.517090
4567.637431	0.085983	0.145733	2219.739014
4567.638332	0.085997	0.145733	2297.222656
4567.639230	0.085979	0.145733	2374.431885
4567.640139	0.085931	0.145733	2452.543457
4567.641077	0.086063	0.145733	2533.270752
4567.641986	0.085935	0.145733	2611.385742
4567.642883	0.085906	0.145733	2688.443115
4567.643820	0.086012	0.145733	2769.036377
4568.648659	0.724277	0.164432	322.303406
4568.649556	1.134390	0.164432	1339.850830
4568.650483	0.672125	0.164432	1962.910889
4568.651423	0.100814	0.164432	2057.676270
4568.652335	0.085840	0.164432	2135.962158
4568.653225	0.086019	0.164432	2212.519287
4568.654155	0.086078	0.164432	2292.571777
4568.655060	0.085931	0.164432	2370.339600
4568.655958	0.085964	0.164432	2447.535645
4568.656845	0.085961	0.164432	2523.782715
4568.657779	0.086067	0.164432	2604.169189
4568.658681	0.085858	0.164432	2681.613281
4568.659567	0.085972	0.164432	2757.784180
4569.676240	0.717993	0.143863	318.070953
4569.677130	1.133573	0.143863	1326.950806
4569.678098	0.630447	0.143863	1937.223389
4569.679003	0.101235	0.143863	2028.841431
4569.679894	0.085858	0.143863	2105.341064
4569.680831	0.085924	0.143863	2185.851807
4569.681746	0.085862	0.143863	2264.415283
4569.682647	0.085946	0.143863	2341.852783
4569.683534	0.085964	0.143863	2418.103271
4569.684482	0.085964	0.143863	2499.597412
4569.685378	0.085862	0.143863	2576.529541
4569.686270	0.085917	0.143863	2653.167236
4569.687201	0.086005	0.143863	2733.237549
4570.688967	0.710101	0.161068	307.473877
4570.689899	1.133577	0.161068	1363.967285
4570.690841	0.631154	0.161068	1958.513916
4570.691746	0.101532	0.161068	2050.400391
4570.692632	0.085854	0.161068	2126.467529
4570.693578	0.085957	0.161068	2207.782959
4570.694477	0.086023	0.161068	2285.117676
4570.695372	0.085968	0.161068	2362.059082
4570.696258	0.085931	0.161068	2438.194336
4570.697188	0.086045	0.161068	2518.216064
4570.698098	0.086056	0.161068	2596.526855
4570.698999	0.085994	0.161068	2674.007080
4570.699923	0.086082	0.161068	2753.546387
4571.718608	0.721685	0.145455	319.706268
4571.719509	1.134540	0.145455	1341.926636
4571.720478	0.622064	0.145455	1944.706787
4571.721392	0.100272	0.145455	2036.355591
4571.722289	0.085781	0.145455	2113.301270
4571.723217	0.085928	0.145455	2193.042236
4571.724118	0.085957	0.145455	2270.489502
4571.725023	0.085825	0.145455	2348.161377
4571.725913	0.085880	0.145455	2424.594727
4571.726856	0.085983	0.145455	2505.676270
4571.727745	0.085939	0.145455	2582.075684
4571.728643	0.085920	0.145455	2659.232178
4571.729531	0.085869	0.145455	2735.483887
4572.729288	0.715437	0.163046	312.645966
4572.730262	1.140073	0.163046	1423.077271
4572.731195	0.595356	0.163046	1978.544922
4572.732090	0.099049	0.163046	2067.193848
4572.732999	0.085876	0.163046	2145.255615
4572.733921	0.086129	0.163046	2224.666748
4572.734827	0.085913	0.163046	2302.503906
4572.735722	0.085979	0.163046	2379.455078
4572.736658	0.085986	0.163046	2459.938232
4572.737564	0.085946	0.163046	2537.805420
4572.738463	0.086019	0.163046	2615.136719
4572.739348	0.085862	0.163046	2691.124512
4572.740293	0.086049	0.163046	2772.440430
4573.760987	0.725295	0.144435	320.580566
4573.761898	1.135591	0.144435	1355.103760
4573.762796	0.683749	0.144435	1969.110107
4573.763762	0.102689	0.144435	2068.307861
4573.764669	0.085778	0.144435	2146.108154
4573.765571	0.085876	0.144435	2223.568848
4573.766453	0.086008	0.144435	2299.428223
4573.767391	0.085990	0.144435	2380.086914
4573.768290	0.085928	0.144435	2457.335937
4573.769183	0.085898	0.144435	2534.043213
4573.770122	0.086122	0.144435	2614.911621
4573.771024	0.085972	0.144435	2692.458008
4573.771925	0.085909	0.144435	2769.862305
4574.770645	0.727302	0.161910	327.285980
4574.771552	1.135485	0.161910	1357.170532
4574.772454	0.675476	0.161910	1966.449951
4574.773401	0.101125	0.161910	2062.215820
4574.774309	0.085939	0.161910	2140.248291
4574.775207	0.085942	0.161910	2217.424561
4574.776097	0.085957	0.161910	2293.926270
4574.777016	0.085990	0.161910	2372.951172
4574.777940	0.085858	0.161910	2452.284180
4574.778837	0.085906	0.161910	2529.341553
4574.779725	0.085931	0.161910	2605.648682
4574.780653	0.085833	0.161910	2685.301270
4574.781558	0.085891	0.161910	2763.032715
4575.801800	0.712526	0.150546	308.523590
4575.802742	1.134287	0.150546	1377.021973
4575.803680	0.620215	0.150546	1958.783447
4575.804592	0.099913	0.150546	2049.904297
4575.805488	0.085774	0.150546	2126.757812
4575.806441	0.086060	0.150546	2208.772461
4575.807337	0.085946	0.150546	2285.780029
4575.808233	0.085942	0.150546	2362.784424
4575.809118	0.086019	0.150546	2438.911621
4575.810055	0.085961	0.150546	2519.456787
4575.810958	0.086030	0.150546	2597.142090
4575.811857	0.086016	0.150546	2674.470215
4575.812771	0.085957	0.150546	2753.034912
4576.812490	0.730547	0.165214	322.171173
4576.813464	1.140458	0.165214	1432.977051
4576.814388	0.594650	0.165214	1982.433350
4576.815282	0.099130	0.165214	2071.055176
4576.816220	0.085928	0.165214	2151.655273
4576.817121	0.085928	0.165214	2229.076172
4576.818018	0.085957	0.165214	2306.179687
4576.818907	0.086052	0.165214	2382.680176
4576.819861	0.086118	0.165214	2464.836914
4576.820767	0.085942	0.165214	2542.700684
4576.821667	0.085935	0.165214	2620.042236
4576.822580	0.085972	0.165214	2698.534424
4576.823494	0.085997	0.165214	2777.135986
4577.843148	0.712690	0.148295	310.733032
4577.844061	1.134313	0.148295	1346.360596
4577.844970	0.680907	0.148295	1965.305054
4577.845902	0.106348	0.148295	2064.421143
4577.846812	0.085953	0.148295	2142.638672
4577.847717	0.085939	0.148295	2220.413330
4577.848607	0.086008	0.148295	2296.960693
4577.849546	0.086111	0.148295	2377.818848
4577.850447	0.086078	0.148295	2455.375000
4577.851349	0.086012	0.148295	2532.957764
4577.852236	0.085913	0.148295	2609.162598
4577.853191	0.086016	0.148295	2691.307617
4577.854099	0.085953	0.148295	2769.353271
4578.855369	0.711914	0.164194	311.106445
4578.856266	1.132910	0.164194	1327.326904
4578.857245	0.623145	0.164194	1937.385376
4578.858138	0.101462	0.164194	2027.991333
4578.859026	0.085906	0.164194	2104.275635
4578.859951	0.086005	0.164194	2183.829834
4578.860876	0.085920	0.164194	2263.306152
4578.861775	0.085909	0.164194	2340.538818
4578.862665	0.086038	0.164194	2417.112305
4578.863605	0.086060	0.164194	2498.008301
4578.864509	0.085913	0.164194	2575.673828
4578.865398	0.085953	0.164194	2652.086426
4578.866331	0.086023	0.164194	2732.345947
4579.883988	0.724061	0.148323	324.379456
4579.884891	1.135170	0.148323	1349.437744
4579.885842	0.643843	0.148323	1961.732178
4579.886749	0.101276	0.148323	2053.589111
4579.887656	0.085884	0.148323	2131.485596
4579.888543	0.085990	0.148323	2207.758789
4579.889488	0.086107	0.148323	2289.130127
4579.890385	0.085986	0.148323	2366.259766
4579.891278	0.085961	0.148323	2443.022705
4579.892169	0.085953	0.148323	2519.607178
4579.893115	0.086063	0.148323	2601.022949
4579.894023	0.086023	0.148323	2679.131836
4579.894925	0.085975	0.148323	2756.681641
4580.898252	0.715814	0.164440	313.526611
4580.899200	1.137118	0.164440	1391.514404
4580.900131	0.619874	0.164440	1968.617432
4580.901030	0.100887	0.164440	2059.315186
4580.901919	0.085851	0.164440	2135.636475
4580.902864	0.086125	0.164440	2217.025146
4580.903768	0.085928	0.164440	2294.703857
4580.904660	0.086016	0.164440	2371.429687
4580.905589	0.086049	0.164440	2451.368896
4580.906490	0.086071	0.164440	2528.918457
4580.907402	0.085902	0.164440	2607.261230
4580.908295	0.085909	0.164440	2683.978271
4580.909224	0.086063	0.164440	2763.930908
4581.923290	0.726980	0.148246	322.779114
4581.924194	1.134737	0.148246	1348.581787
4581.925089	0.687876	0.148246	1964.230713
4581.926041	0.102363	0.148246	2061.680664
4581.926947	0.085906	0.148246	2139.511230
4581.927835	0.086041	0.148246	2215.915771
4581.928758	0.086071	0.148246	2295.358887
4581.929675	0.086100	0.148246	2374.312500
4581.930580	0.085964	0.148246	2452.110352
4581.931476	0.085990	0.148246	2529.157471
4581.932403	0.086023	0.148246	2608.900635
4581.933300	0.085990	0.148246	2686.033691
4581.934193	0.086034	0.148246	2762.862061
4582.941643	0.719542	0.165600	318.037659
4582.942615	1.140491	0.165600	1426.594727
4582.943538	0.596587	0.165600	1977.244385
4582.944428	0.099697	0.165600	2065.974854
4582.945338	0.085862	0.165600	2144.109131
4582.946250	0.086067	0.165600	2222.602051
4582.947150	0.085968	0.165600	2299.973145
4582.948045	0.085983	0.165600	2376.927734
4582.948975	0.085990	0.165600	2456.898437
4582.949882	0.085950	0.165600	2534.854736
4582.950789	0.085942	0.165600	2612.804443
4582.951708	0.085931	0.165600	2691.775391
4582.952595	0.086016	0.165600	2768.071289
4583.962107	0.743954	0.147219	362.305542
4583.963035	1.140791	0.147219	1420.959595
4583.963947	0.603849	0.147219	1971.669678
4583.964832	0.100701	0.147219	2060.789795
4583.965781	0.085898	0.147219	2142.307373
4583.966686	0.086041	0.147219	2220.174805
4583.967586	0.085957	0.147219	2297.536133
4583.968475	0.085909	0.147219	2373.909668
4583.969419	0.086089	0.147219	2455.177490
4583.970328	0.085928	0.147219	2533.285889
4583.971225	0.085975	0.147219	2610.405762
4583.972159	0.086085	0.147219	2690.809326
4583.973054	0.086140	0.147219	2767.904785
4584.985584	0.751831	0.166607	352.608765
4584.986504	1.138674	0.166607	1400.189209
4584.987416	0.629458	0.166607	1974.254883
4584.988302	0.102070	0.166607	2064.689209
4584.989252	0.085990	0.166607	2146.379639
4584.990166	0.085924	0.166607	2224.914307
4584.991059	0.085975	0.166607	2301.690186
4584.991992	0.086089	0.166607	2382.010986
4584.992885	0.086023	0.166607	2458.829590
4584.993788	0.085957	0.166607	2536.448730
4584.994676	0.085928	0.166607	2612.752441
4584.995608	0.085997	0.166607	2692.901855
4584.996512	0.085983	0.166607	2770.630127
4586.001355	0.715745	0.143509	312.780396
4586.002312	1.135521	0.143509	1399.474243
4586.003250	0.611810	0.143509	1973.352295
4586.004147	0.100188	0.143509	2063.220947
4586.005033	0.085840	0.143509	2139.275146
4586.005965	0.086030	0.143509	2219.455322
4586.006880	0.085957	0.143509	2298.105957
4586.007780	0.086023	0.143509	2375.526611
4586.008667	0.086012	0.143509	2451.819336
4586.009615	0.085961	0.143509	2533.310059
4586.010519	0.085953	0.143509	2611.011963
4586.011402	0.085950	0.143509	2686.905518
4586.012346	0.086049	0.143509	2768.135254
4587.029982	0.731404	0.165661	331.325928
4587.030881	1.135155	0.165661	1351.830322
4587.031844	0.630637	0.165661	1959.133911
4587.032744	0.101345	0.165661	2050.344727
4587.033642	0.085876	0.165661	2127.461914
4587.034552	0.085964	0.165661	2205.689453
4587.035448	0.085909	0.165661	2282.664307
4587.036375	0.085990	0.165661	2362.376953
4587.037282	0.085972	0.165661	2440.353271
4587.038171	0.086016	0.165661	2516.821289
4587.039077	0.085986	0.165661	2594.724854
4587.040019	0.085986	0.165661	2675.723877
4587.040919	0.085979	0.165661	2753.104980
4588.040650	0.717861	0.142723	315.859009
4588.041604	1.135360	0.142723	1398.992554
4588.042538	0.605925	0.142723	1964.926758
4588.043435	0.100148	0.142723	2054.759277
4588.044323	0.085770	0.142723	2130.923340
4588.045268	0.085968	0.142723	2212.163086
4588.046170	0.086045	0.142723	2289.775635
4588.047065	0.085895	0.142723	2366.651367
4588.047951	0.086008	0.142723	2442.854736
4588.048890	0.086071	0.142723	2523.675049
4588.049787	0.085997	0.142723	2600.814697
4588.050683	0.085909	0.142723	2677.789551
4588.051612	0.086005	0.142723	2757.687744
4589.073379	0.721696	0.169472	326.928070
4589.074276	1.135173	0.169472	1345.178589
4589.075215	0.653844	0.169472	1959.138184
4589.076138	0.100298	0.169472	2051.713135
4589.077049	0.085884	0.169472	2129.953369
4589.077938	0.086056	0.169472	2206.457031
4589.078869	0.085942	0.169472	2286.469482
4589.079784	0.086005	0.169472	2365.163818
4589.080688	0.086067	0.169472	2442.968262
4589.081573	0.085979	0.169472	2519.059570
4589.082508	0.086071	0.169472	2599.535645
4589.083405	0.085902	0.169472	2676.589844
4589.084292	0.086052	0.169472	2752.918213
4590.080456	0.712918	0.145221	310.119110
4590.081396	1.134950	0.145221	1376.972046
4590.082327	0.630363	0.145221	1963.839600
4590.083227	0.101598	0.145221	2055.277832
4590.084116	0.085909	0.145221	2131.651367
4590.085061	0.086008	0.145221	2212.929199
4590.085963	0.086023	0.145221	2290.521973
4590.086869	0.086001	0.145221	2368.438965
4590.087753	0.086045	0.145221	2444.502686
4590.088706	0.086060	0.145221	2526.517578
4590.089612	0.085964	0.145221	2604.401367
4590.090505	0.085931	0.145221	2681.138184
4590.091432	0.086038	0.145221	2760.895020
4591.115727	0.723102	0.167917	320.334106
4591.116630	1.134258	0.167917	1344.568970
4591.117530	0.684943	0.167917	1961.017334
4591.118485	0.101232	0.167917	2057.693604
4591.119388	0.085851	0.167917	2135.216797
4591.120284	0.086030	0.167917	2212.299805
4591.121204	0.085906	0.167917	2291.333008
4591.122111	0.085986	0.167917	2369.322510
4591.123020	0.085913	0.167917	2447.417480
4591.123911	0.085928	0.167917	2523.979004
4591.124841	0.085924	0.167917	2603.888428
4591.125753	0.086034	0.167917	2682.351318
4591.126653	0.085913	0.167917	2759.673096
4592.122346	0.739651	0.146172	339.499756
4592.123253	1.136576	0.146172	1370.374146
4592.124152	0.663003	0.146172	1966.413818
4592.125103	0.100920	0.146172	2062.389160
4592.125998	0.085909	0.146172	2139.278076
4592.126895	0.086008	0.146172	2216.427490
4592.127818	0.086019	0.146172	2295.823242
4592.128725	0.085953	0.146172	2373.782959
4592.129631	0.085935	0.146172	2451.640137
4592.130524	0.085939	0.146172	2528.383301
4592.131459	0.086096	0.146172	2608.883301
4592.132360	0.085865	0.146172	2686.248047
4592.133261	0.085865	0.146172	2763.612793
4593.156050	0.724189	0.173061	323.712677
4593.156951	1.134543	0.173061	1345.936279
4593.157848	0.678992	0.173061	1954.991821
4593.158816	0.100909	0.173061	2052.672119
4593.159716	0.085847	0.173061	2129.934570
4593.160606	0.085957	0.173061	2206.436279
4593.161552	0.086012	0.173061	2287.803711
4593.162448	0.085957	0.173061	2364.821289
4593.163350	0.085983	0.173061	2442.377686
4593.164255	0.085902	0.173061	2520.119141
4593.165186	0.086067	0.173061	2600.247314
4593.166091	0.085917	0.173061	2678.001953
4593.166992	0.085972	0.173061	2755.462402
4594.164166	0.715529	0.146458	313.401489
4594.165114	1.134917	0.146458	1389.302856
4594.166050	0.611785	0.146458	1961.933350
4594.166945	0.100569	0.146458	2051.942383
4594.167832	0.085833	0.146458	2128.075928
4594.168770	0.085994	0.146458	2208.738037
4594.169673	0.085836	0.146458	2286.248047
4594.170587	0.085909	0.146458	2364.769287
4594.171488	0.085902	0.146458	2442.166992
4594.172433	0.085986	0.146458	2523.424072
4594.173333	0.085865	0.146458	2600.703125
4594.174222	0.085935	0.146458	2677.099365
4594.175156	0.086049	0.146458	2757.468750
4595.195864	0.730367	0.167679	328.665344
4595.196768	1.135719	0.167679	1355.355469
4595.197712	0.640660	0.167679	1960.138916
4595.198621	0.101283	0.167679	2052.205078
4595.199517	0.085854	0.167679	2129.130615
4595.200406	0.085957	0.167679	2205.546387
4595.201346	0.086060	0.167679	2286.442383
4595.202255	0.085898	0.167679	2364.524170
4595.203145	0.085887	0.167679	2440.964111
4595.204052	0.085975	0.167679	2518.943848
4595.204990	0.086034	0.167679	2599.643555
4595.205892	0.085950	0.167679	2677.170166
4595.206787	0.085964	0.167679	2754.108154
4596.208656	0.776001	0.144866	392.656494
4596.209562	1.140608	0.144866	1426.047241
4596.210491	0.594243	0.144866	1978.099121
4596.211377	0.099580	0.144866	2066.327148
4596.212326	0.085829	0.144866	2147.778809
4596.213234	0.085957	0.144866	2225.827881
4596.214120	0.086005	0.144866	2302.028076
4596.215056	0.086078	0.144866	2382.596924
4596.215958	0.085920	0.144866	2460.097168
4596.216846	0.085957	0.144866	2536.427002
4596.217761	0.085975	0.144866	2615.094482
4596.218685	0.085953	0.144866	2694.515381
4596.219584	0.085968	0.144866	2771.800537
4597.235173	0.732459	0.172150	329.606354
4597.236084	1.136085	0.172150	1364.579956
4597.236983	0.678051	0.172150	1974.147461
4597.237942	0.104487	0.172150	2074.350830
4597.238847	0.085884	0.172150	2152.075684
4597.239744	0.085990	0.172150	2229.208740
4597.240629	0.085975	0.172150	2305.296875
4597.241555	0.085986	0.172150	2384.920166
4597.242463	0.085968	0.172150	2462.979004
4597.243362	0.085898	0.172150	2540.201660
4597.244251	0.086027	0.172150	2616.679199
4597.245194	0.086016	0.172150	2697.791992
4597.246097	0.085942	0.172150	2775.397949
4598.252009	0.734601	0.146014	340.854767
4598.252907	1.136100	0.146014	1361.072388
4598.253804	0.676110	0.146014	1967.542725
4598.254749	0.101162	0.146014	2063.140869
4598.255654	0.085759	0.146014	2140.752930
4598.256554	0.085898	0.146014	2218.061523
4598.257440	0.085946	0.146014	2294.209717
4598.258384	0.085997	0.146014	2375.391113
4598.259287	0.085935	0.146014	2452.990479
4598.260178	0.086005	0.146014	2529.620605
4598.261118	0.086005	0.146014	2610.464844
4598.262018	0.085975	0.146014	2687.842773
4598.262917	0.085913	0.146014	2765.078613
4599.274965	0.727723	0.167139	326.020081
4599.275870	1.135166	0.167139	1353.345459
4599.276772	0.672524	0.167139	1959.962402
4599.277733	0.100496	0.167139	2056.538574
4599.278641	0.085858	0.167139	2134.497803
4599.279532	0.085935	0.167139	2211.065918
4599.280469	0.086012	0.167139	2291.659180
4599.281372	0.086008	0.167139	2369.324707
4599.282261	0.085928	0.167139	2445.714355
4599.283152	0.085968	0.167139	2522.311768
4599.284090	0.085990	0.167139	2602.970459
4599.284996	0.086034	0.167139	2680.917236
4599.285900	0.085935	0.167139	2758.602539
4600.295885	0.715928	0.147155	314.292297
4600.296778	1.133664	0.147155	1326.654663
4600.297746	0.647318	0.147155	1953.258545
4600.298642	0.102755	0.147155	2045.327148
4600.299540	0.085822	0.147155	2122.394775
4600.300472	0.086085	0.147155	2202.626221
4600.301371	0.085964	0.147155	2279.908203
4600.302271	0.085939	0.147155	2357.252930
4600.303160	0.085997	0.147155	2433.704590
4600.304115	0.085909	0.147155	2515.748047
4600.305009	0.085917	0.147155	2592.557617
4600.305905	0.085920	0.147155	2669.542236
4600.306792	0.086019	0.147155	2745.841309
4601.314815	0.766443	0.170438	373.257660
4601.315726	1.139843	0.170438	1411.654175
4601.316663	0.594778	0.170438	1968.960937
4601.317550	0.099771	0.170438	2057.457275
4601.318513	0.085972	0.170438	2140.248047
4601.319411	0.085902	0.170438	2217.388184
4601.320297	0.086019	0.170438	2293.601318
4601.321230	0.086038	0.170438	2373.874512
4601.322142	0.085865	0.170438	2452.183838
4601.323042	0.085924	0.170438	2529.515625
4601.323971	0.086027	0.170438	2609.434326
4601.324889	0.085950	0.170438	2688.336182
4601.325797	0.085953	0.170438	2766.381836
4602.338765	0.714558	0.151396	313.690979
4602.339663	1.133423	0.151396	1331.504639
4602.340635	0.625605	0.151396	1939.593140
4602.341541	0.101287	0.151396	2031.358765
4602.342432	0.085865	0.151396	2107.864990
4602.343342	0.086019	0.151396	2186.142578
4602.344256	0.086104	0.151396	2264.841309
4602.345164	0.085939	0.151396	2342.873779
4602.346062	0.085887	0.151396	2420.000732
4602.346994	0.085990	0.151396	2500.143311
4602.347904	0.085964	0.151396	2578.370850
4602.348802	0.085873	0.151396	2655.484619
4602.349691	0.085902	0.151396	2731.851562
4603.355088	0.720743	0.171896	319.289337
4603.355988	1.134364	0.171896	1340.216919
4603.356883	0.685312	0.171896	1953.571533
4603.357834	0.102949	0.171896	2051.476318
4603.358734	0.085887	0.171896	2128.774902
4603.359623	0.085986	0.171896	2205.216797
4603.360552	0.086012	0.171896	2285.121826
4603.361471	0.085950	0.171896	2364.109619
4603.362367	0.085986	0.171896	2441.153320
4603.363284	0.085964	0.171896	2519.982666
4603.364194	0.086122	0.171896	2598.353516
4603.365105	0.085968	0.171896	2676.670410
4603.366000	0.086027	0.171896	2753.664307
4604.380628	0.723812	0.150095	320.648834
4604.381547	1.135631	0.150095	1364.293823
4604.382446	0.673524	0.150095	1969.791992
4604.383370	0.105245	0.150095	2067.038818
4604.384270	0.085906	0.150095	2144.354004
4604.385165	0.085928	0.150095	2221.259277
4604.386055	0.086016	0.150095	2297.813232
4604.386999	0.086067	0.150095	2379.060303
4604.387892	0.085913	0.150095	2455.780762
4604.388790	0.085887	0.150095	2532.907715
4604.389711	0.085865	0.150095	2611.989746
4604.390598	0.085968	0.150095	2688.243408
4604.391558	0.085840	0.150095	2770.649658
4605.395407	0.716144	0.170321	315.819397
4605.396302	1.134144	0.170321	1330.878540
4605.397259	0.651779	0.170321	1954.630615
4605.398162	0.102748	0.170321	2047.411865
4605.399058	0.085807	0.170321	2124.294922
4605.399984	0.086093	0.170321	2204.016602
4605.400885	0.085902	0.170321	2281.414307
4605.401783	0.085979	0.170321	2358.623535
4605.402668	0.085983	0.170321	2434.718262
4605.403615	0.086082	0.170321	2516.237549
4605.404519	0.085950	0.170321	2593.936035
4605.405415	0.086008	0.170321	2670.999512
4605.406303	0.086005	0.170321	2747.371582
4606.422474	0.711306	0.151908	307.995575
4606.423407	1.134188	0.151908	1366.193115
4606.424343	0.630809	0.151908	1956.630615
4606.425250	0.101298	0.151908	2048.507568
4606.426138	0.085840	0.151908	2124.733398
4606.427071	0.085928	0.151908	2204.904053
4606.427976	0.085913	0.151908	2282.655273
4606.428869	0.085950	0.151908	2359.408447
4606.429754	0.085854	0.151908	2435.389648
4606.430698	0.085986	0.151908	2516.560791
4606.431594	0.085939	0.151908	2593.562012
4606.432485	0.085964	0.151908	2670.156250
4606.433421	0.085986	0.151908	2750.639404
4607.437282	0.732209	0.172936	328.762054
4607.438181	1.134906	0.172936	1349.042603
4607.439079	0.689630	0.172936	1968.330566
4607.440026	0.102656	0.172936	2065.546143
4607.440922	0.085931	0.172936	2142.540771
4607.441826	0.085961	0.172936	2220.249268
4607.442714	0.085946	0.172936	2296.569336
4607.443666	0.086012	0.172936	2378.452637
4607.444580	0.085862	0.172936	2456.930420
4607.445474	0.085942	0.172936	2533.762939
4607.446409	0.085961	0.172936	2614.136230
4607.447306	0.085975	0.172936	2691.256104
4607.448205	0.085942	0.172936	2768.518311
4608.464361	0.733696	0.149636	338.233978
4608.465258	1.136199	0.149636	1357.404175
4608.466158	0.673777	0.149636	1963.803345
4608.467097	0.105220	0.149636	2062.604736
4608.468017	0.085774	0.149636	2141.516846
4608.468917	0.085920	0.149636	2218.845215
4608.469815	0.085880	0.149636	2295.965576
4608.470773	0.085979	0.149636	2378.333496
4608.471675	0.085909	0.149636	2455.823730
4608.472563	0.085854	0.149636	2532.062500
4608.473497	0.085957	0.149636	2612.346436
4608.474408	0.085778	0.149636	2690.489746
4608.475302	0.085895	0.149636	2767.279785
4609.478600	0.712771	0.170853	309.342621
4609.479560	1.135635	0.170853	1399.552002
4609.480487	0.616344	0.170853	1970.902832
4609.481387	0.100543	0.170853	2061.391602
4609.482276	0.085880	0.170853	2137.739014
4609.483222	0.085975	0.170853	2219.071777
4609.484127	0.085964	0.170853	2296.869629
4609.485036	0.085920	0.170853	2374.971191
4609.485930	0.086008	0.170853	2451.862549
4609.486868	0.085950	0.170853	2532.483398
4609.487773	0.086041	0.170853	2610.350830
4609.488662	0.086082	0.170853	2686.877441
4609.489587	0.085913	0.170853	2766.347168
4610.506249	0.768805	0.147151	386.708862
4610.507163	1.140813	0.147151	1429.411987
4610.508072	0.606617	0.147151	1980.827271
4610.508957	0.100605	0.147151	2069.863037
4610.509900	0.085898	0.147151	2150.865234
4610.510808	0.085968	0.147151	2228.924316
4610.511708	0.085950	0.147151	2306.279053
4610.512636	0.085917	0.147151	2386.009766
4610.513546	0.085979	0.147151	2464.250732
4610.514448	0.085902	0.147151	2541.734375
4610.515340	0.085917	0.147151	2618.372070
4610.516271	0.085994	0.147151	2698.432129
4610.517168	0.085887	0.147151	2775.473145
4611.520987	0.731034	0.169359	328.234253
4611.521892	1.135792	0.169359	1356.126099
4611.522844	0.629908	0.169359	1955.798950
4611.523756	0.100510	0.169359	2047.464355
4611.524660	0.085851	0.169359	2125.073486
4611.525543	0.085950	0.169359	2200.967041
4611.526485	0.086133	0.169359	2282.104248
4611.527393	0.085876	0.169359	2360.080078
4611.528284	0.085873	0.169359	2436.592773
4611.529215	0.085953	0.169359	2516.615234
4611.530130	0.085961	0.169359	2595.269287
4611.531043	0.085928	0.169359	2673.721191
4611.531939	0.085928	0.169359	2750.712402
4612.546059	0.772980	0.151703	389.581787
4612.546970	1.140590	0.151703	1428.658936
4612.547883	0.605453	0.151703	1981.437500
4612.548767	0.100536	0.151703	2070.311279
4612.549721	0.086038	0.151703	2152.391113
4612.550625	0.085906	0.151703	2230.049805
4612.551517	0.085972	0.151703	2306.736572
4612.552447	0.085983	0.151703	2386.700439
4612.553351	0.086038	0.151703	2464.478516
4612.554257	0.085990	0.151703	2542.385498
4612.555161	0.085803	0.151703	2619.951660
4612.556099	0.086052	0.151703	2700.668701
4612.557002	0.086030	0.151703	2778.354004
4613.563854	0.718099	0.174080	316.681824
4613.564753	1.133932	0.174080	1336.086670
4613.565701	0.667566	0.174080	1968.939209
4613.566609	0.102034	0.174080	2061.585693
4613.567504	0.085774	0.174080	2138.353271
4613.568400	0.085876	0.174080	2215.298584
4613.569351	0.086027	0.174080	2297.109863
4613.570254	0.085895	0.174080	2374.672852
4613.571148	0.085902	0.174080	2451.469238
4613.572065	0.085895	0.174080	2530.234863
4613.572958	0.086005	0.174080	2607.037109
4613.573902	0.085964	0.174080	2688.187500
4613.574800	0.085917	0.174080	2765.340820
4614.586843	0.728163	0.149068	324.032471
4614.587751	1.135441	0.149068	1355.012573
4614.588649	0.672473	0.149068	1958.893433
4614.589600	0.101960	0.149068	2055.857910
4614.590503	0.085818	0.149068	2133.351562
4614.591395	0.085964	0.149068	2210.031738
4614.592326	0.086023	0.149068	2290.119141
4614.593228	0.085994	0.149068	2367.685303
4614.594120	0.085869	0.149068	2444.280518
4614.595010	0.085953	0.149068	2520.779053
4614.595950	0.085979	0.149068	2601.599365
4614.596862	0.085928	0.149068	2679.965332
4614.597762	0.085975	0.149068	2757.343262
4615.607251	0.725204	0.169963	324.166138
4615.608151	1.134661	0.169963	1345.360840
4615.609116	0.622961	0.169963	1946.518555
4615.610016	0.101217	0.169963	2037.613892
4615.610920	0.085829	0.169963	2115.203125
4615.611806	0.085895	0.169963	2191.305908
4615.612736	0.085997	0.169963	2271.283447
4615.613644	0.085972	0.169963	2349.345703
4615.614543	0.085990	0.169963	2426.650635
4615.615471	0.085997	0.169963	2506.456055
4615.616382	0.085979	0.169963	2584.782959
4615.617293	0.085902	0.169963	2663.039795
4615.618185	0.085924	0.169963	2739.684082
4616.626141	0.724460	0.149717	324.558258
4616.627047	1.135536	0.149717	1353.353638
4616.627956	0.670159	0.149717	1962.527832
4616.628892	0.104041	0.149717	2059.909668
4616.629792	0.085968	0.149717	2137.280762
4616.630696	0.085964	0.149717	2214.992432
4616.631584	0.085986	0.149717	2291.348389
4616.632543	0.086052	0.149717	2373.872559
4616.633446	0.085961	0.149717	2451.495117
4616.634338	0.085994	0.149717	2528.201416
4616.635236	0.085990	0.149717	2605.420410
4616.636160	0.086038	0.149717	2684.919189
4616.637070	0.085909	0.149717	2763.096680
4617.650643	0.717686	0.172267	315.063934
4617.651537	1.133514	0.172267	1328.425781
4617.652516	0.628418	0.172267	1943.646973
4617.653428	0.100712	0.172267	2035.495972
4617.654316	0.085851	0.172267	2111.731445
4617.655248	0.085920	0.172267	2191.809326
4617.656158	0.085961	0.172267	2270.033447
4617.657068	0.085906	0.172267	2348.207764
4617.657965	0.085884	0.172267	2425.245605
4617.658902	0.086023	0.172267	2505.849121
4617.659799	0.086023	0.172267	2583.011719
4617.660697	0.085833	0.172267	2660.089355
4617.661585	0.085939	0.172267	2736.402832
4618.665417	0.727452	0.152335	320.079041
4618.666392	1.140729	0.152335	1432.289551
4618.667308	0.599619	0.152335	1981.540771
4618.668200	0.099825	0.152335	2070.584961
4618.669139	0.085975	0.152335	2151.315918
4618.670043	0.085946	0.152335	2229.011230
4618.670935	0.085939	0.152335	2305.668457
4618.671871	0.085887	0.152335	2386.059082
4618.672771	0.086038	0.152335	2463.492920
4618.673658	0.085917	0.152335	2539.701172
4618.674549	0.085935	0.152335	2616.269287
4618.675481	0.085924	0.152335	2696.350586
4618.676387	0.085953	0.152335	2774.224365
4619.694026	0.713046	0.172601	309.461823
4619.694953	1.134456	0.172601	1361.102051
4619.695901	0.624456	0.172601	1953.085937
4619.696813	0.100507	0.172601	2044.747925
4619.697708	0.085818	0.172601	2121.554932
4619.698640	0.085942	0.172601	2201.653320
4619.699546	0.085950	0.172601	2279.523682
4619.700453	0.085898	0.172601	2357.433594
4619.701344	0.085895	0.172601	2433.965820
4619.702286	0.086027	0.172601	2515.002930
4619.703186	0.085913	0.172601	2592.324707
4619.704073	0.085840	0.172601	2668.464600
4619.704998	0.086001	0.172601	2748.015381
4620.704717	0.722853	0.151997	318.055206
4620.705667	1.138213	0.151997	1399.357422
4620.706593	0.621292	0.151997	1974.673340
4620.707477	0.101748	0.151997	2064.618652
4620.708409	0.085909	0.151997	2144.686279
4620.709302	0.085997	0.151997	2221.481934
4620.710197	0.085913	0.151997	2298.374023
4620.711088	0.086008	0.151997	2375.007324
4620.712024	0.085920	0.151997	2455.428711
4620.712922	0.085917	0.151997	2532.582031
4620.713828	0.085986	0.151997	2610.485596
4620.714716	0.086093	0.151997	2686.935791
4620.715661	0.086016	0.151997	2768.220459
4621.737411	0.709255	0.175296	305.689087
4621.738347	1.134349	0.175296	1367.440063
4621.739272	0.646055	0.175296	1965.040649
4621.740179	0.102092	0.175296	2057.638428
4621.741065	0.085781	0.175296	2133.640625
4621.742004	0.085884	0.175296	2214.285400
4621.742910	0.085924	0.175296	2292.132568
4621.743809	0.085913	0.175296	2369.368408
4621.744698	0.085979	0.175296	2445.803711
4621.745639	0.086071	0.175296	2526.796143
4621.746552	0.085865	0.175296	2605.191406
4621.747452	0.086012	0.175296	2682.602051
4621.748380	0.086041	0.175296	2762.448242
4622.745125	0.785889	0.145132	415.735107
4622.746036	1.142490	0.145132	1456.543701
4622.746941	0.575852	0.145132	1977.689819
4622.747854	0.097346	0.145132	2066.566895
4622.748748	0.085968	0.145132	2143.422363
4622.749703	0.085909	0.145132	2225.465820
4622.750605	0.085902	0.145132	2302.949463
4622.751493	0.085979	0.145132	2379.298828
4622.752429	0.085939	0.145132	2459.737549
4622.753337	0.085913	0.145132	2537.746582
4622.754258	0.085906	0.145132	2616.865723
4622.755148	0.085851	0.145132	2693.272949
4622.756098	0.085983	0.145132	2774.956543
4623.780296	0.710533	0.172948	306.950439
4623.781219	1.133917	0.172948	1353.556030
4623.782162	0.636874	0.172948	1954.127930
4623.783073	0.101327	0.172948	2046.436768
4623.783969	0.085836	0.172948	2123.345947
4623.784902	0.086045	0.172948	2203.625977
4623.785801	0.085972	0.172948	2280.914551
4623.786701	0.085939	0.172948	2358.259277
4623.787586	0.086012	0.172948	2434.379883
4623.788532	0.085913	0.172948	2515.653564
4623.789446	0.086045	0.172948	2594.298584
4623.790336	0.085928	0.172948	2670.774170
4623.791261	0.086027	0.172948	2750.348877
4624.785887	0.731386	0.151997	327.660706
4624.786787	1.135096	0.151997	1349.247559
4624.787684	0.676322	0.151997	1955.908447
4624.788638	0.102693	0.151997	2053.877441
4624.789543	0.085891	0.151997	2131.608887
4624.790436	0.085939	0.151997	2208.352051
4624.791361	0.086012	0.151997	2287.913086
4624.792266	0.085968	0.151997	2365.714111
4624.793162	0.085917	0.151997	2442.695557
4624.794050	0.085928	0.151997	2518.999268
4624.794985	0.085997	0.151997	2599.406738
4624.795882	0.085895	0.151997	2676.454346
4624.796786	0.085939	0.151997	2754.143066
4625.820614	0.712163	0.171457	310.503113
4625.821509	1.132903	0.171457	1324.451050
4625.822493	0.620768	0.171457	1935.286621
4625.823400	0.100404	0.171457	2026.353149
4625.824295	0.085895	0.171457	2103.229004
4625.825187	0.085961	0.171457	2179.906006
4625.826143	0.086034	0.171457	2262.154541
4625.827042	0.085946	0.171457	2339.419922
4625.827928	0.085983	0.171457	2415.600586
4625.828862	0.086063	0.171457	2495.983643
4625.829767	0.085968	0.171457	2573.784668
4625.830658	0.085950	0.171457	2650.365967
4625.831577	0.085968	0.171457	2729.370605
4626.828749	0.716847	0.147751	315.412628
4626.829644	1.133254	0.147751	1329.675293
4626.830542	0.706150	0.147751	1963.797852
4626.831500	0.103085	0.147751	2062.552979
4626.832401	0.085825	0.147751	2139.881592
4626.833295	0.085939	0.147751	2216.710693
4626.834190	0.085957	0.147751	2293.642334
4626.835125	0.085968	0.147751	2374.022461
4626.836032	0.085854	0.147751	2451.892578
4626.836935	0.085917	0.147751	2529.475342
4626.837875	0.086030	0.147751	2610.343750
4626.838778	0.085975	0.147751	2687.979492
4626.839677	0.085946	0.147751	2765.244873
4627.860424	0.713932	0.171063	311.988220
4627.861386	1.139194	0.171063	1407.893311
4627.862319	0.605544	0.171063	1972.866211
4627.863216	0.099573	0.171063	2062.182861
4627.864130	0.085895	0.171063	2140.690674
4627.865054	0.086045	0.171063	2220.196289
4627.865961	0.085917	0.171063	2298.122803
4627.866849	0.085917	0.171063	2374.416992
4627.867787	0.086008	0.171063	2455.092773
4627.868681	0.086030	0.171063	2532.003906
4627.869580	0.085880	0.171063	2609.210205
4627.870469	0.085902	0.171063	2685.577148
4627.871399	0.086045	0.171063	2765.598877
4628.872662	0.727566	0.147114	325.221985
4628.873572	1.135602	0.147114	1358.619629
4628.874529	0.620625	0.147114	1952.557861
4628.875436	0.100155	0.147114	2043.398437
4628.876332	0.085844	0.147114	2120.314209
4628.877222	0.085887	0.147114	2196.754150
4628.878167	0.086140	0.147114	2278.156494
4628.879073	0.085869	0.147114	2355.953857
4628.879963	0.085939	0.147114	2432.439209
4628.880890	0.086023	0.147114	2512.182373
4628.881793	0.086078	0.147114	2589.910645
4628.882696	0.085891	0.147114	2667.470215
4628.883587	0.085964	0.147114	2744.064453
4629.899728	0.717711	0.178640	315.075195
4629.900658	1.134214	0.178640	1369.894043
4629.901591	0.638826	0.178640	1965.918457
4629.902506	0.101495	0.178640	2058.786621
4629.903399	0.085895	0.178640	2135.490723
4629.904331	0.085946	0.178640	2215.592529
4629.905242	0.086038	0.178640	2293.972656
4629.906144	0.085884	0.178640	2371.439941
4629.907035	0.085880	0.178640	2447.959229
4629.907978	0.086001	0.178640	2529.058105
4629.908887	0.085961	0.178640	2607.196289
4629.909783	0.085935	0.178640	2684.194092
4629.910713	0.086023	0.178640	2764.195312
4630.916054	0.722900	0.155505	323.136475
4630.916955	1.134679	0.155505	1345.482178
4630.917925	0.626550	0.155505	1953.235840
4630.918826	0.100800	0.155505	2044.056274
4630.919721	0.085840	0.155505	2120.882812
4630.920603	0.085876	0.155505	2196.625977
4630.921539	0.086045	0.155505	2277.164062
4630.922446	0.085968	0.155505	2355.136963
4630.923336	0.085986	0.155505	2431.664795
4630.924270	0.086034	0.155505	2512.020508
4630.925180	0.086008	0.155505	2590.288086
4630.926087	0.085895	0.155505	2668.194580
4630.926973	0.086041	0.155505	2744.427246
4631.939048	0.735868	0.173137	338.499237
4631.939944	1.135836	0.173137	1356.208496
4631.940878	0.651215	0.173137	1964.442871
4631.941805	0.100118	0.173137	2057.252686
4631.942708	0.085818	0.173137	2134.746338
4631.943597	0.085891	0.173137	2211.103516
4631.944517	0.086045	0.173137	2290.264893
4631.945425	0.085953	0.173137	2368.310547
4631.946322	0.085990	0.173137	2445.443604
4631.947210	0.085924	0.173137	2521.744141
4631.948151	0.086041	0.173137	2602.708984
4631.949046	0.085891	0.173137	2679.581543
4631.949935	0.086056	0.173137	2756.085205
4632.959955	0.719806	0.153765	318.874023
4632.960912	1.139634	0.153765	1409.503540
4632.961843	0.607914	0.153765	1975.471313
4632.962738	0.100034	0.153765	2065.001953
4632.963654	0.085876	0.153765	2143.664795
4632.964565	0.085979	0.153765	2221.991699
4632.965476	0.085957	0.153765	2300.298584
4632.966364	0.085950	0.153765	2376.621826
4632.967292	0.085935	0.153765	2456.369629
4632.968191	0.085917	0.153765	2533.608887
4632.969091	0.085891	0.153765	2610.910889
4632.969979	0.085986	0.153765	2687.266846
4632.970938	0.085935	0.153765	2769.678467
4633.978831	0.714782	0.170108	314.503876
4633.979729	1.133130	0.170108	1332.054565
4633.980705	0.631428	0.170108	1948.328491
4633.981605	0.100854	0.170108	2039.097534
4633.982507	0.085752	0.170108	2116.445801
4633.983393	0.086019	0.170108	2192.658936
4633.984335	0.086045	0.170108	2273.713135
4633.985241	0.085931	0.170108	2351.566895
4633.986135	0.085913	0.170108	2428.373291
4633.987061	0.085913	0.170108	2507.928711
4633.987961	0.086060	0.170108	2585.382324
4633.988859	0.085917	0.170108	2662.535645
4633.989749	0.085909	0.170108	2738.995117
4635.002837	0.730089	0.150526	328.540100
4635.003734	1.135060	0.150526	1346.688721
4635.004704	0.621108	0.150526	1949.163818
4635.005614	0.100089	0.150526	2040.244873
4635.006545	0.085869	0.150526	2120.188965
4635.007431	0.085946	0.150526	2196.337158
4635.008389	0.085935	0.150526	2278.662842
4635.009287	0.085869	0.150526	2355.773437
4635.010176	0.085946	0.150526	2432.179443
4635.011113	0.086034	0.150526	2512.793213
4635.012023	0.085950	0.150526	2591.007568
4635.012918	0.085946	0.150526	2667.929199
4635.013814	0.085990	0.150526	2744.976318
4636.018647	0.718967	0.171566	318.502502
4636.019543	1.133591	0.171566	1334.200317
4636.020507	0.635815	0.171566	1947.126465
4636.021411	0.101788	0.171566	2039.143066
4636.022302	0.085851	0.171566	2115.636230
4636.023191	0.085869	0.171566	2191.973877
4636.024130	0.086060	0.171566	2272.783691
4636.025041	0.085884	0.171566	2351.023926
4636.025938	0.085862	0.171566	2428.041992
4636.026862	0.086060	0.171566	2507.561035
4636.027762	0.085909	0.171566	2584.879395
4636.028664	0.085880	0.171566	2662.343262
4636.029552	0.085844	0.171566	2738.572266
4637.045202	0.714086	0.153378	316.339966
4637.046098	1.133815	0.153378	1332.237915
4637.047012	0.683104	0.153378	1956.595215
4637.047944	0.103304	0.153378	2052.875000
4637.048842	0.085829	0.153378	2129.949219
4637.049732	0.085968	0.153378	2206.460693
4637.050668	0.086071	0.153378	2287.022705
4637.051570	0.086019	0.153378	2364.612061
4637.052470	0.085953	0.153378	2441.969971
4637.053409	0.085997	0.153378	2522.721436
4637.054316	0.085906	0.153378	2600.637939
4637.055218	0.085964	0.153378	2678.177734
4637.056108	0.085994	0.153378	2754.712158
4638.059010	0.741874	0.169451	365.001892
4638.059907	1.139055	0.169451	1386.734375
4638.060858	0.605793	0.169451	1962.843994
4638.061776	0.097247	0.169451	2052.116943
4638.062689	0.085811	0.169451	2130.461914
4638.063588	0.085917	0.169451	2207.701172
4638.064524	0.086016	0.169451	2288.211914
4638.065433	0.085822	0.169451	2366.223633
4638.066320	0.085913	0.169451	2442.428467
4638.067264	0.085994	0.169451	2523.606445
4638.068168	0.085986	0.169451	2601.338135
4638.069064	0.085953	0.169451	2678.352295
4638.069949	0.085968	0.169451	2754.434082
4639.087063	0.728317	0.153257	323.372559
4639.087985	1.136840	0.153257	1371.538696
4639.088896	0.654020	0.153257	1967.350708
4639.089835	0.102990	0.153257	2064.057861
4639.090732	0.085928	0.153257	2141.135010
4639.091629	0.085946	0.153257	2218.228516
4639.092512	0.086005	0.153257	2294.170654
4639.093462	0.086012	0.153257	2375.882080
4639.094357	0.085891	0.153257	2452.754639
4639.095253	0.085913	0.153257	2529.732666
4639.096142	0.085913	0.153257	2606.109375
4639.097087	0.086001	0.153257	2687.380371
4639.097989	0.086008	0.153257	2764.959961
4640.100316	0.726859	0.176026	322.725464
4640.101232	1.135983	0.176026	1363.285645
4640.102140	0.665724	0.176026	1967.762939
4640.103070	0.104539	0.176026	2064.983887
4640.103971	0.085935	0.176026	2142.411377
4640.104863	0.085876	0.176026	2219.013184
4640.105750	0.085957	0.176026	2295.257080
4640.106701	0.086056	0.176026	2377.096191
4640.107595	0.086030	0.176026	2454.007324
4640.108498	0.086041	0.176026	2531.702637
4640.109389	0.085964	0.176026	2608.296875
4640.110332	0.086038	0.176026	2689.430420
4640.111243	0.085902	0.176026	2767.687256
4641.128913	0.724178	0.155787	321.535217
4641.129810	1.134456	0.155787	1339.141846
4641.130777	0.629264	0.155787	1947.640015
4641.131688	0.100748	0.155787	2039.421753
4641.132582	0.085778	0.155787	2116.106934
4641.133513	0.085979	0.155787	2196.153320
4641.134425	0.085880	0.155787	2274.476074
4641.135328	0.085840	0.155787	2351.989502
4641.136213	0.085906	0.155787	2428.016113
4641.137158	0.085953	0.155787	2509.241943
4641.138063	0.085935	0.155787	2587.013184
4641.138957	0.085924	0.155787	2663.829346
4641.139848	0.085891	0.155787	2740.358398
4642.142669	0.732968	0.170172	324.704620
4642.143654	1.141461	0.170172	1449.043823
4642.144576	0.581766	0.170172	1985.432373
4642.145467	0.098866	0.170172	2073.521973
4642.146413	0.085946	0.170172	2154.826904
4642.147313	0.086001	0.170172	2232.227783
4642.148204	0.085887	0.170172	2308.753418
4642.149090	0.086067	0.170172	2385.008789
4642.150025	0.086052	0.170172	2465.467529
4642.150931	0.085917	0.170172	2543.308105
4642.151825	0.085986	0.170172	2620.179932
4642.152743	0.085946	0.170172	2699.078369
4642.153654	0.085997	0.170172	2777.421875
4643.169745	0.719963	0.157048	318.223816
4643.170698	1.138975	0.157048	1403.666748
4643.171602	0.627440	0.157048	1970.872559
4643.172517	0.100184	0.157048	2062.541260
4643.173416	0.085887	0.157048	2139.754150
4643.174371	0.085986	0.157048	2221.871094
4643.175277	0.085895	0.157048	2299.691650
4643.176167	0.085990	0.157048	2376.222656
4643.177093	0.086071	0.157048	2455.924072
4643.178007	0.085880	0.157048	2534.418457
4643.178902	0.085946	0.157048	2611.340088
4643.179835	0.085986	0.157048	2691.565430
4643.180734	0.086012	0.157048	2768.890137
4644.185035	0.718304	0.174072	316.053955
4644.186002	1.135719	0.174072	1414.294312
4644.186922	0.609503	0.174072	1975.037231
4644.187812	0.100474	0.174072	2064.458740
4644.188704	0.085854	0.174072	2141.041016
4644.189642	0.085997	0.174072	2221.706543
4644.190548	0.085939	0.174072	2299.567139
4644.191453	0.085844	0.174072	2377.255615
4644.192339	0.085924	0.174072	2453.384277
4644.193294	0.086118	0.174072	2535.627197
4644.194194	0.085961	0.174072	2612.991699
4644.195088	0.085950	0.174072	2689.830811
4644.196035	0.085920	0.174072	2771.197510
4645.210595	0.737758	0.152319	342.319519
4645.211506	1.136938	0.152319	1378.070557
4645.212440	0.637760	0.152319	1973.738403
4645.213364	0.100016	0.152319	2066.153076
4645.214276	0.085844	0.152319	2144.442383
4645.215165	0.085898	0.152319	2220.806152
4645.216102	0.085997	0.152319	2301.385742
4645.217005	0.085961	0.152319	2379.008301
4645.217905	0.085986	0.152319	2456.395996
4645.218792	0.085858	0.152319	2532.552246
4645.219742	0.086027	0.152319	2614.277588
4645.220646	0.085920	0.152319	2691.949707
4645.221541	0.085986	0.152319	2768.907471
4646.228430	0.718191	0.175099	315.285828
4646.229371	1.137019	0.175099	1385.220703
4646.230302	0.621808	0.175099	1964.123779
4646.231201	0.101104	0.175099	2055.015869
4646.232091	0.085840	0.175099	2131.413330
4646.233045	0.085946	0.175099	2213.405762
4646.233954	0.085997	0.175099	2291.577393
4646.234851	0.085957	0.175099	2368.680908
4646.235776	0.085979	0.175099	2448.211426
4646.236675	0.085935	0.175099	2525.467041
4646.237569	0.085858	0.175099	2602.224121
4646.238452	0.085964	0.175099	2678.130615
4646.239381	0.086005	0.175099	2758.028809
4647.249886	0.731660	0.153773	329.978729
4647.250810	1.136730	0.153773	1380.317017
4647.251709	0.657279	0.153773	1971.210937
4647.252654	0.100880	0.153773	2066.542725
4647.253562	0.085898	0.153773	2144.538574
4647.254466	0.085968	0.153773	2222.253662
4647.255350	0.085858	0.153773	2298.152344
4647.256309	0.086030	0.153773	2380.655273
4647.257210	0.086012	0.153773	2458.152100
4647.258102	0.086056	0.153773	2534.914062
4647.259035	0.085997	0.153773	2615.149658
4647.259935	0.086067	0.153773	2692.609863
4647.260826	0.085880	0.153773	2769.129150
4648.271322	0.724435	0.174825	328.893402
4648.272220	1.134818	0.174825	1347.960083
4648.273180	0.638408	0.174825	1960.831909
4648.274076	0.100774	0.174825	2051.125244
4648.274997	0.085770	0.174825	2130.119629
4648.275895	0.085968	0.174825	2207.318848
4648.276833	0.085997	0.174825	2287.984375
4648.277746	0.085928	0.174825	2366.436279
4648.278667	0.085950	0.174825	2445.595947
4648.279555	0.085902	0.174825	2521.876953
4648.280507	0.085950	0.174825	2603.701172
4648.281399	0.085909	0.174825	2680.332275
4648.282287	0.085887	0.174825	2756.600342
4649.289190	0.741702	0.156802	339.699371
4649.290106	1.137711	0.156802	1381.842773
4649.291033	0.633999	0.156802	1969.559814
4649.291920	0.102367	0.156802	2060.359375
4649.292870	0.085917	0.156802	2141.980225
4649.293778	0.085898	0.156802	2219.976074
4649.294669	0.085920	0.156802	2296.531250
4649.295606	0.085994	0.156802	2377.107422
4649.296498	0.085964	0.156802	2453.787598
4649.297405	0.085953	0.156802	2531.747314
4649.298293	0.085873	0.156802	2608.002441
4649.299227	0.085895	0.156802	2688.228271
4649.300128	0.085979	0.156802	2765.695312
4650.315217	0.730895	0.174426	326.709961
4650.316183	1.140355	0.174426	1428.293091
4650.317104	0.606130	0.174426	1986.539062
4650.317991	0.100576	0.174426	2075.750000
4650.318933	0.085884	0.174426	2156.652588
4650.319833	0.085942	0.174426	2234.000732
4650.320735	0.085876	0.174426	2311.461426
4650.321647	0.085942	0.174426	2389.840820
4650.322541	0.085895	0.174426	2466.630859
4650.323491	0.086038	0.174426	2548.366699
4650.324397	0.085917	0.174426	2626.207275
4650.325287	0.085928	0.174426	2702.682861
4650.326214	0.085957	0.174426	2782.364990
4651.328500	0.731752	0.154768	350.509064
4651.329425	1.139550	0.154768	1404.592407
4651.330354	0.605684	0.154768	1967.272461
4651.331247	0.099979	0.154768	2056.553955
4651.332183	0.085928	0.154768	2136.982422
4651.333085	0.085898	0.154768	2214.462891
4651.333986	0.085935	0.154768	2291.890381
4651.334877	0.085968	0.154768	2368.487793
4651.335818	0.085913	0.154768	2449.332031
4651.336727	0.085862	0.154768	2527.380371
4651.337622	0.085942	0.154768	2604.298828
4651.338539	0.085928	0.154768	2683.094482
4651.339443	0.085902	0.154768	2760.750000
4652.359697	0.770559	0.174193	388.361786
4652.360599	1.140648	0.174193	1417.226562
4652.361530	0.591061	0.174193	1967.504150
4652.362425	0.099185	0.174193	2056.274414
4652.363382	0.085847	0.174193	2138.430176
4652.364283	0.085931	0.174193	2215.854248
4652.365173	0.085964	0.174193	2292.362549
4652.366107	0.086052	0.174193	2372.735352
4652.367023	0.085975	0.174193	2451.488770
4652.367943	0.086023	0.174193	2530.629883
4652.368831	0.085950	0.174193	2606.953125
4652.369760	0.086016	0.174193	2686.861572
4652.370659	0.085953	0.174193	2764.133545
4653.368313	0.732473	0.156448	352.319580
4653.369241	1.140124	0.156448	1410.355103
4653.370168	0.594152	0.156448	1961.133667
4653.371060	0.099628	0.156448	2050.001465
4653.371999	0.085968	0.156448	2130.725342
4653.372895	0.086049	0.156448	2207.824951
4653.373785	0.086038	0.156448	2284.398437
4653.374675	0.085935	0.156448	2360.880615
4653.375618	0.086063	0.156448	2442.038330
4653.376527	0.085961	0.156448	2520.176514
4653.377425	0.085979	0.156448	2597.385742
4653.378350	0.085946	0.156448	2676.885742
4653.379260	0.085979	0.156448	2755.126709
4654.402041	0.730682	0.178990	355.842316
4654.402974	1.141099	0.178990	1420.487305
4654.403890	0.594441	0.178990	1964.995117
4654.404781	0.099562	0.178990	2053.704590
4654.405739	0.085917	0.178990	2136.012939
4654.406643	0.085946	0.178990	2213.708252
4654.407533	0.086016	0.178990	2290.262207
4654.408482	0.085968	0.178990	2371.845947
4654.409375	0.085968	0.178990	2448.615479
4654.410271	0.085983	0.178990	2525.656006
4654.411157	0.085964	0.178990	2601.820312
4654.412092	0.086082	0.178990	2682.306641
4654.412994	0.085913	0.178990	2759.800293
4655.408600	0.727222	0.153197	321.431976
4655.409522	1.136968	0.153197	1369.716309
4655.410435	0.657821	0.153197	1970.306885
4655.411326	0.104249	0.153197	2063.192871
4655.412271	0.085964	0.153197	2144.429199
4655.413182	0.085975	0.153197	2222.752686
4655.414077	0.085913	0.153197	2299.645020
4655.415012	0.086019	0.153197	2380.072998
4655.415911	0.086034	0.153197	2457.417480
4655.416805	0.085917	0.153197	2534.227051
4655.417691	0.085961	0.153197	2610.388184
4655.418626	0.086056	0.153197	2690.850342
4655.419534	0.086034	0.153197	2768.969238
4656.444369	0.712705	0.178922	308.601288
4656.445315	1.134998	0.178922	1382.309082
4656.446241	0.634226	0.178922	1969.602417
4656.447131	0.102235	0.178922	2060.591553
4656.448055	0.085858	0.178922	2139.924561
4656.448964	0.085990	0.178922	2218.089355
4656.449872	0.085876	0.178922	2296.065186
4656.450769	0.085924	0.178922	2373.139160
4656.451690	0.085997	0.178922	2452.342773
4656.452599	0.085975	0.178922	2530.494385
4656.453501	0.085924	0.178922	2607.997803
4656.454394	0.086030	0.178922	2684.822754
4656.455340	0.086001	0.178922	2766.179687
4657.450442	0.716499	0.154128	315.259583
4657.451418	1.136034	0.154128	1424.028809
4657.452333	0.601498	0.154128	1974.399292
4657.453237	0.099716	0.154128	2064.542236
4657.454130	0.085840	0.154128	2141.197266
4657.455064	0.086096	0.154128	2221.611084
4657.455970	0.085975	0.154128	2299.504639
4657.456876	0.085950	0.154128	2377.375000
4657.457765	0.085953	0.154128	2453.787598
4657.458707	0.086001	0.154128	2534.800537
4657.459616	0.085935	0.154128	2612.915527
4657.460510	0.085961	0.154128	2689.764404
4657.461396	0.085939	0.154128	2765.906006
4658.485226	0.748429	0.177802	351.761627
4658.486145	1.138293	0.177802	1397.853271
4658.487048	0.642294	0.177802	1977.844482
4658.487991	0.102297	0.177802	2074.310791
4658.488888	0.085935	0.177802	2151.394531
4658.489785	0.085862	0.177802	2228.412598
4658.490700	0.085979	0.177802	2307.083496
4658.491599	0.085887	0.177802	2384.296387
4658.492533	0.085920	0.177802	2464.546143
4658.493440	0.085917	0.177802	2542.472656
4658.494367	0.086008	0.177802	2622.202393
4658.495257	0.086067	0.177802	2698.802002
4658.496201	0.085953	0.177802	2779.941895
4659.493830	0.711167	0.152738	310.779968
4659.494786	1.138865	0.152738	1399.534668
4659.495707	0.619449	0.152738	1970.047607
4659.496605	0.100931	0.152738	2060.684082
4659.497492	0.085854	0.152738	2136.836914
4659.498448	0.086005	0.152738	2219.057373
4659.499359	0.085964	0.152738	2297.370850
4659.500251	0.085920	0.152738	2374.011963
4659.501185	0.085968	0.152738	2454.306152
4659.502079	0.085975	0.152738	2531.168213
4659.502978	0.085865	0.152738	2608.361328
4659.503868	0.085898	0.152738	2684.811035
4659.504809	0.085968	0.152738	2765.707031
4660.525013	0.725380	0.181613	323.519318
4660.525932	1.135972	0.181613	1367.477295
4660.526844	0.655642	0.181613	1965.422852
4660.527780	0.102821	0.181613	2061.663330
4660.528684	0.085909	0.181613	2139.325439
4660.529578	0.085928	0.181613	2216.144775
4660.530463	0.085876	0.181613	2292.145508
4660.531398	0.085950	0.181613	2372.508545
4660.532295	0.085935	0.181613	2449.592285
4660.533198	0.085887	0.181613	2527.148682
4660.534087	0.085931	0.181613	2603.541748
4660.535035	0.086071	0.181613	2685.136719
4660.535942	0.085792	0.181613	2762.950195
4661.536201	0.712244	0.156186	311.250458
4661.537095	1.132844	0.156186	1324.013184
4661.538068	0.634526	0.156186	1941.407227
4661.538978	0.101664	0.156186	2033.921265
4661.539869	0.085811	0.156186	2110.378418
4661.540772	0.085979	0.156186	2188.017578
4661.541699	0.086034	0.156186	2267.770996
4661.542594	0.085858	0.156186	2344.614014
4661.543495	0.085990	0.156186	2422.091064
4661.544422	0.085997	0.156186	2501.810547
4661.545331	0.085957	0.156186	2579.945557
4661.546235	0.085884	0.156186	2657.584473
4661.547125	0.085906	0.156186	2734.040527
4662.565338	0.730741	0.178696	327.371948
4662.566244	1.135671	0.178696	1356.290161
4662.567143	0.672480	0.178696	1960.850098
4662.568094	0.101598	0.178696	2057.469727
4662.568996	0.085800	0.178696	2134.860840
4662.569887	0.086001	0.178696	2211.487793
4662.570813	0.086019	0.178696	2291.141602
4662.571715	0.086027	0.178696	2368.737549
4662.572611	0.085950	0.178696	2445.748535
4662.573501	0.085873	0.178696	2522.175293
4662.574443	0.086144	0.178696	2603.322754
4662.575345	0.085928	0.178696	2680.829590
4662.576241	0.085950	0.178696	2757.840576
4663.579609	0.723907	0.156339	320.691010
4663.580506	1.135031	0.156339	1338.813354
4663.581473	0.628623	0.156339	1946.691895
4663.582387	0.100844	0.156339	2038.862793
4663.583277	0.085737	0.156339	2115.168945
4663.584212	0.085986	0.156339	2195.566162
4663.585112	0.086005	0.156339	2272.970215
4663.586013	0.085928	0.156339	2350.391113
4663.586904	0.085953	0.156339	2426.975586
4663.587851	0.086023	0.156339	2508.439209
4663.588759	0.086060	0.156339	2586.581299
4663.589658	0.085953	0.156339	2663.853271
4663.590560	0.085887	0.156339	2741.323730
4664.605660	0.735710	0.180271	333.276825
4664.606564	1.136096	0.180271	1360.307739
4664.607520	0.623082	0.180271	1955.974365
4664.608422	0.100686	0.180271	2046.793213
4664.609326	0.085847	0.180271	2124.399170
4664.610213	0.085902	0.180271	2200.594238
4664.611171	0.085928	0.180271	2282.913086
4664.612079	0.085964	0.180271	2360.968750
4664.612969	0.086012	0.180271	2437.519287
4664.613901	0.086063	0.180271	2517.730225
4664.614813	0.086107	0.180271	2596.260010
4664.615713	0.086001	0.180271	2673.660889
4664.616609	0.086016	0.180271	2750.730957
4665.622987	0.713694	0.158583	310.456787
4665.623930	1.135554	0.158583	1381.284424
4665.624862	0.623928	0.158583	1962.785522
4665.625771	0.100624	0.158583	2054.252441
4665.626663	0.085884	0.158583	2130.860840
4665.627612	0.085935	0.158583	2212.413086
4665.628521	0.086019	0.158583	2290.604736
4665.629426	0.085946	0.158583	2368.385986
4665.630320	0.085939	0.158583	2445.215088
4665.631251	0.086071	0.158583	2525.346680
4665.632160	0.085961	0.158583	2603.484863
4665.633046	0.085931	0.158583	2679.620117
4665.633974	0.085983	0.158583	2759.412109
4666.645468	0.730540	0.181540	333.856567
4666.646364	1.135327	0.181540	1351.109741
4666.647317	0.632043	0.181540	1953.447144
4666.648223	0.101173	0.181540	2045.109985
4666.649119	0.085913	0.181540	2122.088135
4666.650005	0.086016	0.181540	2198.298096
4666.650943	0.086063	0.181540	2279.025391
4666.651851	0.086008	0.181540	2357.120850
4666.652746	0.085975	0.181540	2434.068848
4666.653669	0.085953	0.181540	2513.403809
4666.654580	0.085957	0.181540	2591.710693
4666.655484	0.085920	0.181540	2669.382812
4666.656372	0.086019	0.181540	2745.768066
4667.665365	0.725918	0.157737	325.211273
4667.666262	1.134536	0.157737	1342.890137
4667.667201	0.656726	0.157737	1959.555908
4667.668107	0.103217	0.157737	2053.070068
4667.669016	0.085858	0.157737	2131.115234
4667.669909	0.085902	0.157737	2207.825928
4667.670851	0.085939	0.157737	2288.780273
4667.671762	0.085957	0.157737	2367.087158
4667.672652	0.085796	0.157737	2443.445557
4667.673575	0.085939	0.157737	2522.767090
4667.674481	0.086041	0.157737	2600.720459
4667.675383	0.085876	0.157737	2678.181152
4667.676280	0.085851	0.157737	2755.189453
4668.686287	0.716993	0.182334	316.194122
4668.687243	1.138843	0.182334	1404.927734
4668.688163	0.617216	0.182334	1972.766113
4668.689058	0.100898	0.182334	2063.070312
4668.689944	0.085829	0.182334	2139.114746
4668.690882	0.085939	0.182334	2219.725342
4668.691795	0.085909	0.182334	2298.160645
4668.692692	0.085975	0.182334	2375.280518
4668.693614	0.086038	0.182334	2454.607178
4668.694510	0.086027	0.182334	2531.687012
4668.695409	0.085931	0.182334	2608.939453
4668.696299	0.085953	0.182334	2685.437988
4668.697251	0.086030	0.182334	2767.338867
4669.707728	0.724376	0.154929	323.071777
4669.708627	1.134247	0.154929	1342.759644
4669.709525	0.697581	0.154929	1969.187012
4669.710479	0.102729	0.154929	2067.190918
4669.711380	0.085906	0.154929	2144.592041
4669.712272	0.085972	0.154929	2221.278809
4669.713162	0.085990	0.154929	2297.809814
4669.714110	0.085997	0.154929	2379.335205
4669.715023	0.086063	0.154929	2457.910889
4669.715920	0.085946	0.154929	2535.004395
4669.716857	0.085975	0.154929	2615.563232
4669.717760	0.085950	0.154929	2693.175781
4669.718657	0.085833	0.154929	2770.167480
4670.727120	0.722062	0.181411	319.151306
4670.728038	1.135521	0.181411	1361.559814
4670.728952	0.664797	0.181411	1969.184570
4670.729865	0.105114	0.181411	2065.153320
4670.730782	0.085931	0.181411	2143.952393
4670.731685	0.085902	0.181411	2221.521973
4670.732574	0.085887	0.181411	2297.875977
4670.733507	0.086052	0.181411	2378.162598
4670.734413	0.085972	0.181411	2456.052979
4670.735313	0.085887	0.181411	2533.351562
4670.736204	0.085950	0.181411	2609.932861
4670.737154	0.085957	0.181411	2691.592041
4670.738054	0.085898	0.181411	2768.900635
4671.749582	0.724772	0.160617	319.624329
4671.750547	1.140051	0.160617	1419.773682
4671.751477	0.598458	0.160617	1976.339844
4671.752378	0.098899	0.160617	2065.447754
4671.753307	0.085961	0.160617	2145.305176
4671.754201	0.086005	0.160617	2222.193359
4671.755094	0.085858	0.160617	2298.864746
4671.755982	0.086030	0.160617	2375.259521
4671.756913	0.086060	0.160617	2455.380859
4671.757816	0.085942	0.160617	2532.986816
4671.758721	0.085946	0.160617	2610.768066
4671.759611	0.085968	0.160617	2687.279541
4671.760564	0.086001	0.160617	2769.238525
4672.769480	0.720143	0.178612	314.702423
4672.770449	1.139293	0.178612	1418.677612
4672.771379	0.602472	0.178612	1978.976562
4672.772264	0.100067	0.178612	2067.535889
4672.773195	0.085836	0.178612	2147.449463
4672.774097	0.086063	0.178612	2225.078613
4672.775008	0.085891	0.178612	2303.325439
4672.775897	0.085898	0.178612	2379.689209
4672.776830	0.086008	0.178612	2459.935059
4672.777731	0.086067	0.178612	2537.481445
4672.778639	0.085979	0.178612	2615.550293
4672.779533	0.085917	0.178612	2692.359863
4672.780471	0.086122	0.178612	2773.142090
4673.789978	0.785804	0.158317	408.618317
4673.790900	1.142618	0.158317	1462.112427
4673.791808	0.577299	0.158317	1986.299561
4673.792694	0.098785	0.158317	2073.823486
4673.793669	0.085931	0.158317	2157.606689
4673.794572	0.085902	0.158317	2235.176270
4673.795463	0.086038	0.158317	2311.835693
4673.796400	0.086041	0.158317	2392.456299
4673.797306	0.086016	0.158317	2470.386475
4673.798207	0.085972	0.158317	2547.846924
4673.799096	0.086005	0.158317	2624.304932
4673.800039	0.086093	0.158317	2705.490234
4673.800933	0.086016	0.158317	2782.388184
4674.811362	0.738138	0.175828	335.852997
4674.812265	1.136169	0.175828	1361.813965
4674.813186	0.655331	0.175828	1965.373535
4674.814118	0.100968	0.175828	2059.475830
4674.815016	0.085953	0.175828	2136.661865
4674.815903	0.086027	0.175828	2212.967529
4674.816845	0.086115	0.175828	2294.087402
4674.817759	0.085909	0.175828	2372.608643
4674.818658	0.085957	0.175828	2449.884033
4674.819592	0.086056	0.175828	2530.260254
4674.820500	0.086063	0.175828	2608.405762
4674.821392	0.085942	0.175828	2685.066406
4674.822278	0.085975	0.175828	2761.240479
4675.831267	0.737563	0.160565	336.328949
4675.832162	1.135463	0.160565	1352.567993
4675.833124	0.617395	0.160565	1946.501953
4675.834040	0.099529	0.160565	2037.670288
4675.834940	0.085796	0.160565	2114.886719
4675.835825	0.085975	0.160565	2190.974854
4675.836777	0.086008	0.160565	2272.854736
4675.837677	0.085957	0.160565	2350.216064
4675.838577	0.085979	0.160565	2427.597168
4675.839506	0.085986	0.160565	2507.478516
4675.840390	0.086016	0.160565	2583.516357
4675.841346	0.085994	0.160565	2665.726318
4675.842255	0.085953	0.160565	2743.857910
4676.853731	0.733876	0.184429	332.445709
4676.854631	1.135525	0.184429	1354.418213
4676.855526	0.686136	0.184429	1968.510376
4676.856474	0.101807	0.184429	2065.022949
4676.857376	0.085924	0.184429	2142.526367
4676.858285	0.086005	0.184429	2220.704590
4676.859179	0.085876	0.184429	2297.478027
4676.860119	0.086038	0.184429	2378.353271
4676.861030	0.085829	0.184429	2456.543457
4676.861925	0.085979	0.184429	2533.494629
4676.862871	0.086019	0.184429	2614.868896
4676.863775	0.085990	0.184429	2692.603760
4676.864670	0.085964	0.184429	2769.541748
4677.871560	0.711537	0.161387	309.518524
4677.872487	1.134133	0.161387	1360.860107
4677.873428	0.633131	0.161387	1956.636475
4677.874340	0.100968	0.161387	2048.719238
4677.875235	0.085800	0.161387	2125.509766
4677.876173	0.085997	0.161387	2206.175293
4677.877072	0.086082	0.161387	2283.562500
4677.877970	0.085983	0.161387	2360.774902
4677.878858	0.086049	0.161387	2437.186035
4677.879795	0.086041	0.161387	2517.806641
4677.880698	0.086060	0.161387	2595.518555
4677.881592	0.085902	0.161387	2672.314941
4677.882510	0.085968	0.161387	2751.233643
4678.896626	0.729207	0.183494	347.831512
4678.897565	1.140663	0.183494	1418.914062
4678.898471	0.611169	0.183494	1972.633545
4678.899356	0.101228	0.183494	2062.220459
4678.900295	0.085876	0.183494	2142.858398
4678.901191	0.085968	0.183494	2219.885742
4678.902085	0.086016	0.183494	2296.783691
4678.903019	0.086067	0.183494	2377.170166
4678.903934	0.085891	0.183494	2455.760498
4678.904832	0.085939	0.183494	2532.933594
4678.905722	0.086019	0.183494	2609.490723
4678.906670	0.086093	0.183494	2691.106445
4678.907576	0.085939	0.183494	2768.967041
4679.911376	0.717689	0.160295	315.065552
4679.912310	1.134891	0.160295	1375.054077
4679.913246	0.624320	0.160295	1959.417725
4679.914151	0.100873	0.160295	2050.707520
4679.915049	0.085803	0.160295	2127.758789
4679.915984	0.085975	0.160295	2208.145752
4679.916881	0.086027	0.160295	2285.311523
4679.917781	0.085983	0.160295	2362.695801
4679.918666	0.085836	0.160295	2438.660889
4679.919623	0.085939	0.160295	2520.904297
4679.920520	0.085946	0.160295	2597.997803
4679.921421	0.085968	0.160295	2675.455078
4679.922354	0.085964	0.160295	2755.659912
4680.939513	0.742797	0.182551	358.770752
4680.940445	1.140403	0.182551	1421.626099
4680.941360	0.602626	0.182551	1973.028564
4680.942246	0.100499	0.182551	2062.070801
4680.943208	0.085961	0.182551	2144.764893
4680.944105	0.086023	0.182551	2221.927490
4680.945029	0.086027	0.182551	2301.416016
4680.945920	0.085924	0.182551	2377.974365
4680.946849	0.086063	0.182551	2457.927002
4680.947755	0.085986	0.182551	2535.830566
4680.948642	0.085928	0.182551	2612.048340
4680.949593	0.086093	0.182551	2693.922363
4680.950500	0.085920	0.182551	2771.852051
4681.951700	0.720780	0.158575	322.909454
4681.952603	1.135162	0.158575	1347.961060
4681.953564	0.641642	0.158575	1964.578857
4681.954478	0.100437	0.158575	2056.378174
4681.955368	0.085869	0.158575	2132.801758
4681.956286	0.085891	0.158575	2211.649902
4681.957211	0.085811	0.158575	2291.024658
4681.958105	0.085917	0.158575	2367.834229
4681.958995	0.085939	0.158575	2444.319580
4681.959928	0.085862	0.158575	2524.428711
4681.960836	0.085953	0.158575	2602.474365
4681.961751	0.085924	0.158575	2681.094971
4681.962640	0.085979	0.158575	2757.530273
4682.982875	0.725413	0.183458	321.357788
4682.983797	1.136265	0.183458	1368.993774
4682.984698	0.667288	0.183458	1970.219971
4682.985634	0.103528	0.183458	2067.122070
4682.986538	0.085844	0.183458	2144.724609
4682.987433	0.085942	0.183458	2221.643066
4682.988322	0.085913	0.183458	2298.019775
4682.989257	0.086104	0.183458	2378.526611
4682.990174	0.085895	0.183458	2457.292236
4682.991073	0.085895	0.183458	2534.511719
4682.991993	0.085946	0.183458	2613.582031
4682.992890	0.086016	0.183458	2690.738037
4682.993800	0.085990	0.183458	2768.989014
4683.991502	0.713866	0.159711	313.387177
4683.992441	1.137539	0.159711	1381.536377
4683.993365	0.632047	0.159711	1965.547852
4683.994267	0.101371	0.159711	2056.984375
4683.995177	0.085898	0.159711	2135.151855
4683.996105	0.085957	0.159711	2214.919922
4683.997018	0.086005	0.159711	2293.442139
4683.997916	0.085972	0.159711	2370.644775
4683.998837	0.085997	0.159711	2449.848389
4683.999719	0.085865	0.159711	2525.581787
4684.000660	0.085953	0.159711	2606.463867
4684.001577	0.086041	0.159711	2685.363770
4684.002473	0.085931	0.159711	2762.358398
4685.025750	0.728936	0.180851	328.020996
4685.026672	1.136071	0.180851	1375.478149
4685.027574	0.662424	0.180851	1972.984863
4685.028500	0.104462	0.180851	2069.716309
4685.029405	0.085939	0.180851	2147.490967
4685.030315	0.085990	0.180851	2225.741943
4685.031205	0.086027	0.180851	2302.305664
4685.032141	0.086041	0.180851	2382.840332
4685.033048	0.085972	0.180851	2460.816650
4685.033950	0.085953	0.180851	2538.346680
4685.034841	0.086041	0.180851	2615.009521
4685.035793	0.086122	0.180851	2696.997559
4685.036697	0.085990	0.180851	2774.732422
4686.032343	0.725482	0.160939	321.388611
4686.033260	1.135778	0.160939	1362.896729
4686.034168	0.663523	0.160939	1965.375488
4686.035105	0.104088	0.160939	2062.906006
4686.036010	0.085847	0.160939	2140.597656
4686.036906	0.085880	0.160939	2217.546143
4686.037827	0.085964	0.160939	2296.719238
4686.038714	0.085920	0.160939	2372.930664
4686.039656	0.085990	0.160939	2453.933350
4686.040550	0.085865	0.160939	2530.697021
4686.041454	0.085906	0.160939	2608.355713
4686.042350	0.086034	0.160939	2685.442139
4686.043297	0.085876	0.160939	2766.767090
4687.068669	0.761927	0.183470	370.296753
4687.069580	1.139604	0.183470	1408.476440
4687.070490	0.626400	0.183470	1978.500610
4687.071377	0.102026	0.183470	2068.998047
4687.072328	0.085935	0.183470	2150.722168
4687.073234	0.085935	0.183470	2228.579346
4687.074125	0.085986	0.183470	2305.193115
4687.075069	0.086012	0.183470	2386.388428
4687.075968	0.086104	0.183470	2463.795410
4687.076863	0.086001	0.183470	2540.766357
4687.077748	0.085983	0.183470	2616.861084
4687.078687	0.085986	0.183470	2697.602295
4687.079590	0.086060	0.183470	2775.313965
4688.073681	0.718795	0.159276	317.707458
4688.074577	1.134119	0.159276	1333.877686
4688.075558	0.616780	0.159276	1938.938599
4688.076462	0.100638	0.159276	2029.915771
4688.077363	0.085803	0.159276	2107.224365
4688.078297	0.086089	0.159276	2187.631348
4688.079195	0.086060	0.159276	2264.912842
4688.080093	0.085942	0.159276	2342.089111
4688.080978	0.085847	0.159276	2418.063965
4688.081922	0.086078	0.159276	2499.321533
4688.082823	0.085964	0.159276	2576.775391
4688.083726	0.085946	0.159276	2654.384766
4688.084616	0.085957	0.159276	2730.886475
4689.108946	0.724611	0.185532	322.451691
4689.109858	1.135338	0.185532	1357.880005
4689.110759	0.677446	0.185532	1968.259155
4689.111702	0.103942	0.185532	2066.276123
4689.112609	0.085917	0.185532	2144.202637
4689.113511	0.085920	0.185532	2221.702881
4689.114394	0.085869	0.185532	2297.525391
4689.115322	0.086082	0.185532	2377.409180
4689.116233	0.085986	0.185532	2455.742676
4689.117126	0.085909	0.185532	2532.459717
4689.118042	0.085950	0.185532	2611.189697
4689.118969	0.085924	0.185532	2690.841309
4689.119873	0.086016	0.185532	2768.599365
4690.117082	0.723523	0.157805	321.967712
4690.117974	1.133859	0.157805	1333.369629
4690.118935	0.640360	0.157805	1948.755615
4690.119843	0.102052	0.157805	2041.418823
4690.120736	0.085891	0.157805	2118.119629
4690.121624	0.085931	0.157805	2194.426758
4690.122577	0.085931	0.157805	2276.319336
4690.123488	0.085887	0.157805	2354.562744
4690.124377	0.085931	0.157805	2430.955811
4690.125321	0.086023	0.157805	2512.161377
4690.126228	0.085975	0.157805	2590.141113
4690.127125	0.086045	0.157805	2667.323486
4690.128017	0.085928	0.157805	2743.970947
4691.149272	0.728914	0.186197	327.282196
4691.150180	1.135334	0.186197	1358.165894
4691.151081	0.664468	0.186197	1956.851318
4691.152016	0.102030	0.186197	2052.249512
4691.152924	0.085800	0.186197	2130.155518
4691.153820	0.085986	0.186197	2207.199219
4691.154753	0.086089	0.186197	2287.520020
4691.155658	0.086001	0.186197	2365.350830
4691.156556	0.086016	0.186197	2442.592773
4691.157443	0.085917	0.186197	2518.801025
4691.158392	0.086056	0.186197	2600.468018
4691.159294	0.085924	0.186197	2677.971436
4691.160196	0.085979	0.186197	2755.524414
4692.159946	0.712218	0.159953	309.814819
4692.160842	1.133247	0.159953	1325.204102
4692.161816	0.632446	0.159953	1941.206787
4692.162724	0.101499	0.159953	2033.367920
4692.163624	0.085884	0.159953	2110.663330
4692.164550	0.085942	0.159953	2190.246094
4692.165446	0.086030	0.159953	2267.329102
4692.166348	0.085939	0.159953	2344.845703
4692.167234	0.085924	0.159953	2420.974365
4692.168174	0.085990	0.159953	2501.804932
4692.169076	0.085983	0.159953	2579.361328
4692.169977	0.085935	0.159953	2656.788818
4692.170869	0.085968	0.159953	2733.472168
4693.189590	0.715507	0.183430	314.822876
4693.190488	1.133881	0.183430	1333.047607
4693.191408	0.678014	0.183430	1956.820312
4693.192345	0.101814	0.183430	2052.219971
4693.193248	0.085778	0.183430	2129.677246
4693.194139	0.085906	0.183430	2206.219238
4693.195079	0.086082	0.183430	2287.135986
4693.195984	0.085858	0.183430	2364.837646
4693.196880	0.085946	0.183430	2441.845215
4693.197768	0.085924	0.183430	2518.145752
4693.198705	0.085972	0.183430	2598.701172
4693.199603	0.085917	0.183430	2675.854492
4693.200497	0.085972	0.183430	2752.713135
4694.203336	0.714895	0.159324	310.979340
4694.204286	1.134620	0.159324	1388.868652
4694.205205	0.634797	0.159324	1972.247437
4694.206112	0.101953	0.159324	2064.718994
4694.207001	0.085833	0.159324	2141.024170
4694.207931	0.086060	0.159324	2221.059570
4694.208836	0.085972	0.159324	2298.864014
4694.209735	0.085983	0.159324	2376.162354
4694.210622	0.085836	0.159324	2452.299072
4694.211573	0.085979	0.159324	2534.065186
4694.212475	0.085917	0.159324	2611.562012
4694.213373	0.085972	0.159324	2688.764648
4694.214293	0.085924	0.159324	2767.814697
4695.229407	0.722626	0.181480	324.458954
4695.230310	1.135137	0.181480	1349.487427
4695.231246	0.656799	0.181480	1964.251587
4695.232159	0.101100	0.181480	2056.555664
4695.233063	0.085836	0.181480	2134.151611
4695.233951	0.086019	0.181480	2210.536621
4695.234880	0.086063	0.181480	2290.489258
4695.235796	0.085928	0.181480	2369.198975
4695.236701	0.085913	0.181480	2446.950195
4695.237591	0.086001	0.181480	2523.490967
4695.238533	0.085946	0.181480	2604.452148
4695.239427	0.086016	0.181480	2681.350098
4695.240312	0.085950	0.181480	2757.415527
4696.247241	0.726984	0.163558	317.691864
4696.248220	1.140839	0.163558	1434.572876
4696.249149	0.590321	0.163558	1982.981201
4696.250042	0.098987	0.163558	2071.376465
4696.250967	0.085895	0.163558	2150.829102
4696.251867	0.085986	0.163558	2228.216797
4696.252764	0.086027	0.163558	2305.382568
4696.253648	0.085946	0.163558	2381.358887
4696.254582	0.086034	0.163558	2461.714600
4696.255486	0.086023	0.163558	2539.479248
4696.256385	0.085935	0.163558	2616.734863
4696.257296	0.085975	0.163558	2695.058350
4696.258225	0.085997	0.163558	2774.949951
4697.268185	0.726193	0.187248	323.155731
4697.269112	1.136598	0.187248	1376.782104
4697.270021	0.655682	0.187248	1972.797363
4697.270913	0.104033	0.187248	2065.594971
4697.271853	0.085906	0.187248	2146.346436
4697.272760	0.085964	0.187248	2224.316162
4697.273649	0.085979	0.187248	2300.751465
4697.274582	0.085983	0.187248	2380.973389
4697.275496	0.085964	0.187248	2459.544922
4697.276394	0.085920	0.187248	2536.701416
4697.277313	0.085964	0.187248	2615.702637
4697.278210	0.085924	0.187248	2692.776611
4697.279120	0.085902	0.187248	2770.947510
4698.290121	0.716477	0.163550	313.816956
4698.291077	1.139059	0.163550	1402.757080
4698.292004	0.614425	0.163550	1972.329102
4698.292900	0.100397	0.163550	2062.284668
4698.293827	0.085898	0.163550	2141.912598
4698.294739	0.086008	0.163550	2220.352051
4698.295646	0.085994	0.163550	2298.348389
4698.296542	0.085968	0.163550	2375.375732
4698.297483	0.086115	0.163550	2456.409424
4698.298387	0.085920	0.163550	2534.081543
4698.299283	0.085968	0.163550	2611.108887
4698.300168	0.085939	0.163550	2687.164551
4698.301113	0.085964	0.163550	2768.400879
4699.309011	0.715865	0.183909	318.560150
4699.309911	1.134456	0.183909	1339.570190
4699.310852	0.666478	0.183909	1966.726318
4699.311763	0.102437	0.183909	2060.045898
4699.312660	0.085844	0.183909	2137.047607
4699.313550	0.085898	0.183909	2213.497314
4699.314473	0.086012	0.183909	2292.886230
4699.315384	0.085909	0.183909	2371.149658
4699.316285	0.085979	0.183909	2448.616699
4699.317220	0.085957	0.183909	2528.986572
4699.318122	0.086078	0.183909	2606.628906
4699.319022	0.085920	0.183909	2683.957275
4699.319909	0.085895	0.183909	2760.145996
4700.333003	0.714401	0.163232	311.478668
4700.333959	1.136993	0.163232	1398.444336
4700.334884	0.621790	0.163232	1973.599609
4700.335778	0.101151	0.163232	2064.028809
4700.336668	0.085884	0.163232	2140.465332
4700.337617	0.086038	0.163232	2222.114990
4700.338522	0.086008	0.163232	2299.952393
4700.339422	0.085931	0.163232	2377.290527
4700.340342	0.086008	0.163232	2456.418213
4700.341240	0.085990	0.163232	2533.637207
4700.342153	0.085898	0.163232	2612.062500
4700.343046	0.085895	0.163232	2688.766602
4700.343933	0.086008	0.163232	2765.055908
4701.349321	0.712467	0.186435	309.923187
4701.350272	1.134708	0.186435	1389.030762
4701.351199	0.630981	0.186435	1973.950562
4701.352091	0.101796	0.186435	2064.752197
4701.352981	0.085865	0.186435	2141.172363
4701.353914	0.086085	0.186435	2221.489746
4701.354821	0.085884	0.186435	2299.386230
4701.355720	0.085997	0.186435	2376.697754
4701.356609	0.085961	0.186435	2453.116699
4701.357550	0.085994	0.186435	2534.036621
4701.358457	0.085884	0.186435	2611.933105
4701.359350	0.086030	0.186435	2688.758057
4701.360298	0.086005	0.186435	2770.290527
4702.375380	0.715620	0.162506	313.441620
4702.376284	1.134185	0.162506	1338.744507
4702.377238	0.640206	0.162506	1949.501221
4702.378143	0.101818	0.162506	2041.646240
4702.379049	0.085851	0.162506	2119.427002
4702.379935	0.085942	0.162506	2195.572021
4702.380879	0.085997	0.162506	2276.753418
4702.381784	0.085902	0.162506	2354.494873
4702.382675	0.085979	0.162506	2431.102051
4702.383613	0.085964	0.162506	2511.736572
4702.384512	0.086049	0.162506	2589.094238
4702.385414	0.085935	0.162506	2666.607666
4702.386301	0.085909	0.162506	2742.809326
4703.391196	0.731719	0.183373	329.273437
4703.392098	1.135393	0.183373	1353.397949
4703.392996	0.680878	0.183373	1964.826172
4703.393957	0.101730	0.183373	2062.588379
4703.394860	0.085668	0.183373	2139.946289
4703.395759	0.085869	0.183373	2217.142578
4703.396690	0.085789	0.183373	2297.011719
4703.397601	0.086082	0.183373	2375.432129
4703.398512	0.085968	0.183373	2453.749023
4703.399408	0.085957	0.183373	2530.766602
4703.400337	0.085935	0.183373	2610.600342
4703.401232	0.085909	0.183373	2687.489258
4703.402132	0.085887	0.183373	2764.788086
4704.415684	0.711233	0.162724	309.386322
4704.416634	1.134734	0.162724	1387.383423
4704.417564	0.619856	0.162724	1963.849365
4704.418454	0.101616	0.162724	2054.287842
4704.419341	0.085858	0.162724	2130.444092
4704.420299	0.085994	0.162724	2212.825928
4704.421192	0.086023	0.162724	2289.644531
4704.422099	0.085986	0.162724	2367.634033
4704.422991	0.085979	0.162724	2444.327393
4704.423932	0.085909	0.162724	2525.168213
4704.424833	0.085990	0.162724	2602.645264
4704.425732	0.085895	0.162724	2679.864746
4704.426660	0.085994	0.162724	2759.666748
4705.432521	0.715550	0.180896	314.126648
4705.433411	1.134045	0.180896	1323.427124
4705.434407	0.604581	0.180896	1925.590088
4705.435314	0.099441	0.180896	2015.782959
4705.436203	0.085902	0.180896	2092.149902
4705.437134	0.086012	0.180896	2172.227051
4705.438040	0.085990	0.180896	2250.134033
4705.438948	0.085909	0.180896	2328.139893
4705.439846	0.085924	0.180896	2405.299805
4705.440789	0.086060	0.180896	2486.454102
4705.441692	0.085869	0.180896	2563.993896
4705.442575	0.085920	0.180896	2639.861572
4705.443489	0.085862	0.180896	2718.339355
4706.457036	0.719312	0.162913	318.654999
4706.458014	1.138433	0.162913	1432.042114
4706.458917	0.610067	0.162913	1982.932739
4706.459801	0.100880	0.162913	2072.110840
4706.460731	0.085854	0.162913	2151.955566
4706.461638	0.085975	0.162913	2229.935303
4706.462557	0.085975	0.162913	2308.946533
4706.463458	0.085994	0.162913	2386.426758
4706.464409	0.085906	0.162913	2468.123047
4706.465311	0.085957	0.162913	2545.656250
4706.466232	0.085898	0.162913	2624.768799
4706.467117	0.085968	0.162913	2700.850586
4706.468066	0.085917	0.162913	2782.385498
4707.475402	0.712203	0.179643	310.520660
4707.476380	1.136071	0.179643	1421.597656
4707.477294	0.613011	0.179643	1981.890137
4707.478183	0.100730	0.179643	2071.438965
4707.479070	0.085785	0.179643	2147.530273
4707.479998	0.086001	0.179643	2227.339111
4707.480897	0.085920	0.179643	2304.581543
4707.481798	0.085928	0.179643	2382.002441
4707.482683	0.085946	0.179643	2458.064697
4707.483644	0.085854	0.179643	2540.570801
4707.484547	0.085895	0.179643	2618.133789
4707.485438	0.085924	0.179643	2694.692139
4707.486369	0.085913	0.179643	2774.677246
4708.497881	0.727313	0.162249	328.018250
4708.498779	1.134932	0.162249	1347.186768
4708.499742	0.638068	0.162249	1961.645874
4708.500643	0.101840	0.162249	2053.403320
4708.501537	0.085836	0.162249	2130.140869
4708.502427	0.085858	0.162249	2206.554687
4708.503363	0.085975	0.162249	2287.027588
4708.504274	0.085898	0.162249	2365.281006
4708.505169	0.085939	0.162249	2442.196045
4708.506080	0.085902	0.162249	2520.452881
4708.506999	0.085979	0.162249	2599.467529
4708.507905	0.085884	0.162249	2677.278320
4708.508795	0.085935	0.162249	2753.760498
4709.518298	0.723962	0.182713	321.439331
4709.519194	1.134869	0.182713	1338.282349
4709.520169	0.620654	0.182713	1943.420288
4709.521083	0.100591	0.182713	2035.360352
4709.521972	0.085822	0.182713	2111.655762
4709.522894	0.085931	0.182713	2190.884521
4709.523800	0.086016	0.182713	2268.814697
4709.524702	0.085961	0.182713	2346.351318
4709.525591	0.086001	0.182713	2422.806152
4709.526547	0.085961	0.182713	2504.984619
4709.527456	0.085957	0.182713	2583.119629
4709.528358	0.086012	0.182713	2660.702393
4709.529254	0.085928	0.182713	2737.693604
4710.538226	0.742808	0.163231	354.319244
4710.539117	1.137133	0.163231	1367.504272
4710.540085	0.603186	0.163231	1951.388428
4710.540997	0.098833	0.163231	2041.524170
4710.541894	0.085818	0.163231	2118.502686
4710.542785	0.086001	0.163231	2195.129639
4710.543736	0.085942	0.163231	2276.860840
4710.544640	0.085869	0.163231	2354.486572
4710.545530	0.085902	0.163231	2430.939453
4710.546458	0.085942	0.163231	2510.694092
4710.547355	0.085898	0.163231	2587.744873
4710.548251	0.085891	0.163231	2664.703369
4710.549142	0.085873	0.163231	2741.216064
4711.561177	0.721194	0.182668	325.258423
4711.562082	1.135415	0.182668	1352.809082
4711.563041	0.644348	0.182668	1970.739014
4711.563949	0.100518	0.182668	2062.009033
4711.564843	0.085836	0.182668	2138.746582
4711.565744	0.085887	0.182668	2216.131104
4711.566677	0.086056	0.182668	2296.421387
4711.567579	0.085917	0.182668	2373.918213
4711.568474	0.085928	0.182668	2450.823486
4711.569406	0.085957	0.182668	2530.935547
4711.570309	0.086030	0.182668	2608.620850
4711.571211	0.085873	0.182668	2686.078125
4711.572099	0.085917	0.182668	2762.372314
4712.577493	0.724318	0.163211	324.494324
4712.578392	1.134657	0.163211	1344.551025
4712.579340	0.648292	0.163211	1959.132080
4712.580245	0.102649	0.163211	2052.029297
4712.581141	0.085884	0.163211	2128.981201
4712.582026	0.085957	0.163211	2205.053223
4712.582970	0.086005	0.163211	2286.241699
4712.583875	0.086012	0.163211	2364.082520
4712.584774	0.085884	0.163211	2441.291992
4712.585687	0.085931	0.163211	2519.747314
4712.586606	0.086038	0.163211	2598.815918
4712.587512	0.085972	0.163211	2676.706299
4712.588406	0.085876	0.163211	2753.479980
4713.605093	0.746320	0.182962	347.038605
4713.606001	1.137433	0.182962	1379.827515
4713.606960	0.597323	0.182962	1952.660278
4713.607870	0.098467	0.182962	2042.265015
4713.608794	0.085917	0.182962	2121.652100
4713.609682	0.085997	0.182962	2198.017822
4713.610632	0.085983	0.182962	2279.701416
4713.611529	0.085829	0.182962	2356.689941
4713.612418	0.085931	0.182962	2433.083008
4713.613359	0.085924	0.182962	2513.937500
4713.614252	0.085858	0.182962	2590.608887
4713.615169	0.085887	0.182962	2669.367676
4713.616069	0.085880	0.182962	2746.659668
4714.616804	0.738314	0.164637	335.932953
4714.617706	1.135888	0.164637	1360.503540
4714.618605	0.667709	0.164637	1960.773682
4714.619564	0.100935	0.164637	2057.570312
4714.620467	0.085847	0.164637	2135.090332
4714.621357	0.085902	0.164637	2211.543213
4714.622287	0.085939	0.164637	2291.466309
4714.623196	0.085964	0.164637	2369.607910
4714.624092	0.085913	0.164637	2446.585937
4714.624984	0.085913	0.164637	2523.220459
4714.625942	0.086019	0.164637	2605.626953
4714.626839	0.085953	0.164637	2682.727051
4714.627738	0.085880	0.164637	2759.933350
4715.648460	0.718894	0.187623	315.594482
4715.649423	1.139652	0.187623	1413.079468
4715.650349	0.607994	0.187623	1976.082275
4715.651243	0.100016	0.187623	2065.496582
4715.652169	0.085887	0.187623	2145.028320
4715.653069	0.086005	0.187623	2222.432617
4715.653963	0.086019	0.187623	2299.333984
4715.654850	0.085862	0.187623	2375.493408
4715.655785	0.086049	0.187623	2455.948730
4715.656692	0.085990	0.187623	2533.941650
4715.657595	0.085950	0.187623	2611.554199
4715.658485	0.085946	0.187623	2688.046143
4715.659420	0.086067	0.187623	2768.518799
4716.656592	0.724211	0.162631	322.998322
4716.657495	1.134767	0.162631	1347.692871
4716.658388	0.687605	0.162631	1961.724121
4716.659342	0.102532	0.162631	2059.539307
4716.660247	0.085829	0.162631	2137.214355
4716.661141	0.085884	0.162631	2213.994385
4716.662047	0.085946	0.162631	2291.861572
4716.662943	0.085906	0.162631	2368.833008
4716.663887	0.085902	0.162631	2449.924561
4716.664807	0.085876	0.162631	2528.930908
4716.665702	0.085902	0.162631	2605.813232
4716.666652	0.085964	0.162631	2687.479492
4716.667557	0.085844	0.162631	2765.167969
4717.690831	0.719158	0.187933	317.148560
4717.691723	1.133987	0.187933	1328.664795
4717.692693	0.636790	0.187933	1946.350586
4717.693603	0.102052	0.187933	2039.217896
4717.694495	0.085873	0.187933	2115.816406
4717.695425	0.086056	0.187933	2195.848389
4717.696327	0.086019	0.187933	2273.437744
4717.697230	0.085898	0.187933	2351.004150
4717.698115	0.085862	0.187933	2426.991943
4717.699058	0.085979	0.187933	2508.070068
4717.699954	0.085983	0.187933	2585.110596
4717.700855	0.085935	0.187933	2662.538086
4717.701738	0.085975	0.187933	2738.454346
4718.697417	0.711650	0.161225	309.567902
4718.698314	1.134093	0.161225	1326.849365
4718.699299	0.621621	0.161225	1939.146118
4718.700203	0.100778	0.161225	2030.249023
4718.701104	0.085895	0.161225	2107.640137
4718.702037	0.086056	0.161225	2187.930176
4718.702939	0.086063	0.161225	2265.559326
4718.703836	0.085935	0.161225	2342.643066
4718.704721	0.085935	0.161225	2418.695557
4718.705649	0.086060	0.161225	2498.558838
4718.706554	0.085902	0.161225	2576.300293
4718.707453	0.085862	0.161225	2653.489990
4718.708361	0.085953	0.161225	2731.535645
4719.732170	0.715792	0.190580	313.516998
4719.733144	1.139121	0.190580	1423.020874
4719.734042	0.622343	0.190580	1981.884521
4719.734931	0.101660	0.190580	2072.260498
4719.735881	0.086008	0.190580	2153.968262
4719.736792	0.085880	0.190580	2232.205078
4719.737695	0.085957	0.190580	2309.824219
4719.738582	0.085913	0.190580	2386.029053
4719.739518	0.086005	0.190580	2466.529297
4719.740420	0.085939	0.190580	2544.045898
4719.741312	0.086012	0.190580	2620.768555
4719.742253	0.086012	0.190580	2701.705811
4719.743155	0.086038	0.190580	2779.311768
4720.739792	0.720311	0.162039	319.097900
4720.740694	1.134452	0.162039	1342.373535
4720.741633	0.667771	0.162039	1969.410400
4720.742547	0.102719	0.162039	2063.295166
4720.743452	0.085836	0.162039	2140.976807
4720.744344	0.085902	0.162039	2217.601562
4720.745233	0.085975	0.162039	2294.033691
4720.746162	0.085983	0.162039	2373.911621
4720.747069	0.085986	0.162039	2451.901123
4720.747989	0.085983	0.162039	2531.005127
4720.748875	0.086038	0.162039	2607.234375
4720.749823	0.085953	0.162039	2688.718262
4720.750731	0.085953	0.162039	2766.763916
4721.774034	0.721362	0.186894	319.563507
4721.774987	1.136287	0.186894	1402.444580
4721.775905	0.625873	0.186894	1976.995850
4721.776800	0.101554	0.186894	2067.886719
4721.777686	0.085730	0.186894	2143.843506
4721.778607	0.086038	0.186894	2223.084229
4721.779512	0.086030	0.186894	2300.941650
4721.780421	0.085898	0.186894	2379.023437
4721.781310	0.086005	0.186894	2455.481445
4721.782252	0.086085	0.186894	2536.573730
4721.783155	0.085913	0.186894	2614.153320
4721.784041	0.085994	0.186894	2690.343750
4721.784977	0.086169	0.186894	2770.998291
4722.781636	0.726035	0.161169	315.099243
4722.782623	1.141523	0.161169	1441.782959
4722.783540	0.593738	0.161169	1986.240479
4722.784429	0.099445	0.161169	2074.646729
4722.785363	0.085950	0.161169	2154.923828
4722.786266	0.085836	0.161169	2232.433838
4722.787162	0.085975	0.161169	2309.467773
4722.788047	0.085895	0.161169	2385.484619
4722.788982	0.085935	0.161169	2465.833984
4722.789895	0.085873	0.161169	2544.235840
4722.790799	0.085972	0.161169	2621.954346
4722.791696	0.085968	0.161169	2699.067627
4722.792637	0.085917	0.161169	2779.915283
4723.814347	0.724977	0.190322	318.989807
4723.815301	1.139333	0.190322	1405.914062
4723.816236	0.601128	0.190322	1967.968750
4723.817132	0.099624	0.190322	2057.231934
4723.818063	0.085924	0.190322	2137.227295
4723.818968	0.086030	0.190322	2215.084717
4723.819867	0.085884	0.190322	2292.294189
4723.820759	0.085979	0.190322	2368.987549
4723.821696	0.085997	0.190322	2449.567139
4723.822603	0.086005	0.190322	2527.573242
4723.823501	0.085902	0.190322	2604.713379
4723.824388	0.086045	0.190322	2681.035156
4723.825325	0.086089	0.190322	2761.700439
4724.824013	0.718019	0.160496	315.210236
4724.824951	1.134844	0.160496	1379.693604
4724.825890	0.623357	0.160496	1965.025757
4724.826784	0.101287	0.160496	2055.575928
4724.827671	0.085833	0.160496	2131.709473
4724.828598	0.085953	0.160496	2211.388184
4724.829514	0.085854	0.160496	2290.031006
4724.830416	0.085942	0.160496	2367.551025
4724.831304	0.085928	0.160496	2443.854736
4724.832255	0.085983	0.160496	2525.624268
4724.833155	0.085939	0.160496	2602.969238
4724.834048	0.085975	0.160496	2679.745117
4724.834980	0.086041	0.160496	2759.935547
4725.855210	0.728881	0.189331	345.489410
4725.856142	1.139337	0.189331	1407.351685
4725.857048	0.621508	0.189331	1970.437500
4725.857934	0.101840	0.189331	2060.667480
4725.858873	0.085953	0.189331	2141.377686
4725.859777	0.085986	0.189331	2219.109375
4725.860699	0.085902	0.189331	2298.311035
4725.861592	0.085847	0.189331	2374.972656
4725.862546	0.086008	0.189331	2457.024658
4725.863445	0.085997	0.189331	2534.336182
4725.864332	0.085961	0.189331	2610.583252
4725.865270	0.086041	0.189331	2691.290039
4725.866178	0.085891	0.189331	2769.279053
4726.866889	0.714276	0.163509	309.995850
4726.867838	1.135745	0.163509	1387.817505
4726.868767	0.622277	0.163509	1965.912476
4726.869674	0.100928	0.163509	2057.453857
4726.870563	0.085807	0.163509	2133.736084
4726.871505	0.085975	0.163509	2214.724854
4726.872405	0.085975	0.163509	2292.102539
4726.873298	0.085906	0.163509	2368.816406
4726.874214	0.085964	0.163509	2447.559814
4726.875136	0.085975	0.163509	2526.829102
4726.876051	0.085964	0.163509	2605.486572
4726.876942	0.085887	0.163509	2682.012207
4726.877871	0.085942	0.163509	2761.852783
4727.895525	0.743181	0.186455	342.606506
4727.896430	1.136799	0.186455	1371.409912
4727.897328	0.658616	0.186455	1962.846802
4727.898287	0.099844	0.186455	2058.596924
4727.899194	0.085807	0.186455	2136.423828
4727.900089	0.085946	0.186455	2213.345459
4727.901027	0.086001	0.186455	2294.014404
4727.901930	0.086023	0.186455	2371.693115
4727.902827	0.085917	0.186455	2448.760498
4727.903710	0.085898	0.186455	2524.608887
4727.904644	0.085942	0.186455	2604.879150
4727.905547	0.085961	0.186455	2682.501709
4727.906453	0.085909	0.186455	2760.335693
4728.909780	0.726504	0.161495	324.020752
4728.910677	1.134434	0.161495	1341.607666
4728.911629	0.644612	0.161495	1955.278076
4728.912547	0.101298	0.161495	2048.269287
4728.913447	0.085854	0.161495	2125.538330
4728.914332	0.085862	0.161495	2201.526123
4728.915278	0.085961	0.161495	2282.844971
4728.916173	0.085917	0.161495	2359.740479
4728.917062	0.086001	0.161495	2436.195312
4728.917990	0.086038	0.161495	2516.038086
4728.918899	0.086027	0.161495	2594.236328
4728.919797	0.085983	0.161495	2671.448730
4728.920712	0.085935	0.161495	2750.079346
